Time[sec]	Test_Cell_Temp[C]	Test_Cell_RH[%]	Dyno_Speed[mph]	Dyno_Tractive_Effort[N]	Phase_#	Accelerator_Pedal_Position[%]	HV_Battery_SOC[%]	HV_Battery_Current[A]	HV_Battery_Voltage[V]	Motor_Speed[rpm]
-10.000	0.860	3.068	0.000	-11.291	0.000	0.000	10.200	0.004	8.021	0.000
-9.900	0.862	3.066	0.000	-11.219	0.000	0.000	10.200	0.004	8.047	0.000
-9.800	0.863	3.066	0.001	-11.290	0.000	0.000	10.200	0.004	8.073	0.000
-9.700	0.862	3.068	0.000	-11.219	0.000	0.000	10.200	0.004	8.100	0.000
-9.600	0.864	3.069	0.000	-11.290	0.000	0.000	10.200	0.003	8.126	0.000
-9.500	0.861	3.066	0.000	-11.076	0.000	0.000	10.200	0.003	8.153	0.000
-9.400	0.863	3.069	0.000	-11.432	0.000	0.000	10.200	0.003	8.179	0.000
-9.300	0.860	3.067	0.000	-11.291	0.000	0.000	10.200	0.003	8.205	0.000
-9.200	0.863	3.067	0.000	-11.579	0.000	0.000	10.200	0.003	8.232	0.000
-9.100	0.861	3.067	0.000	-11.075	0.000	0.000	10.200	0.002	8.258	0.000
-9.000	0.863	3.066	0.000	-11.430	0.000	0.000	10.200	0.002	8.285	0.000
-8.900	0.861	3.066	0.001	-11.222	0.000	0.000	10.200	0.002	8.311	0.000
-8.800	0.861	3.066	0.000	-11.430	0.000	0.000	10.200	0.002	8.337	0.000
-8.700	0.861	3.066	0.000	-11.220	0.000	0.000	10.200	0.002	8.364	0.000
-8.600	0.862	3.066	0.000	-11.362	0.000	0.000	10.200	0.001	8.390	0.000
-8.500	0.862	3.066	0.000	-11.148	0.000	0.000	10.200	0.001	8.417	0.000
-8.400	0.860	3.066	0.000	-11.218	0.000	0.000	10.200	0.001	8.443	0.000
-8.300	0.863	3.066	0.000	-11.077	0.000	0.000	10.200	0.001	8.469	0.000
-8.200	0.863	3.066	0.000	-11.146	0.000	0.000	10.200	0.001	8.496	0.000
-8.100	0.865	3.066	0.000	-11.217	0.000	0.000	10.200	0.000	8.522	0.000
-8.000	0.864	3.064	0.000	-11.359	0.000	0.000	10.200	0.000	8.549	0.000
-7.900	0.866	3.066	0.000	-11.433	0.000	0.000	10.200	0.000	8.575	0.000
-7.800	0.865	3.065	0.000	-11.080	0.000	0.000	10.200	0.002	13.878	0.000
-7.700	0.865	3.066	0.000	-11.145	0.000	0.000	10.200	0.005	20.430	0.000
-7.600	0.866	3.066	0.000	-11.077	0.000	0.000	10.200	0.007	26.983	0.000
-7.500	0.866	3.066	0.000	-11.355	0.000	0.000	10.200	0.010	33.536	0.000
-7.400	0.866	3.064	0.000	-11.363	0.000	0.000	10.200	0.012	40.088	0.000
-7.300	0.866	3.065	0.000	-11.293	0.000	0.000	10.200	0.015	46.641	0.000
-7.200	0.864	3.066	0.000	-11.151	0.000	0.000	10.200	0.018	53.194	0.000
-7.100	0.865	3.066	0.000	-11.561	0.000	0.000	10.200	0.020	59.746	0.000
-7.000	0.863	3.065	0.000	-11.228	0.000	0.000	10.200	0.023	66.299	0.000
-6.900	0.865	3.066	0.000	-11.429	0.000	0.000	10.200	0.025	72.852	0.000
-6.800	0.865	3.066	0.000	-11.296	0.000	0.000	10.200	0.028	79.405	0.000
-6.700	0.867	3.064	0.000	-11.499	0.000	0.000	10.200	0.031	85.957	0.000
-6.600	0.866	3.065	0.000	-11.438	0.000	0.000	10.200	0.033	92.510	0.000
-6.500	0.866	3.063	0.000	-11.233	0.000	0.000	10.200	0.036	99.063	0.000
-6.400	0.866	3.064	0.000	-11.358	0.000	0.000	10.200	0.038	105.615	0.000
-6.300	0.866	3.062	0.000	-11.433	0.000	0.000	10.200	0.041	112.168	0.000
-6.200	0.866	3.062	0.000	-11.226	0.000	0.000	10.200	0.044	118.721	0.000
-6.100	0.866	3.063	0.000	-11.288	0.000	0.000	10.200	0.046	125.274	0.000
-6.000	0.866	3.064	0.000	-11.221	0.000	0.000	10.200	0.049	131.826	0.000
-5.900	0.867	3.061	0.000	-11.288	0.000	0.000	10.200	0.051	138.379	0.000
-5.800	0.869	3.062	0.000	-11.497	0.000	0.000	10.200	0.054	144.932	0.000
-5.700	0.869	3.064	0.000	-11.301	0.000	0.000	10.200	0.057	151.484	0.000
-5.600	0.871	3.062	0.000	-11.085	0.000	0.000	10.200	0.059	158.037	0.000
-5.500	0.871	3.065	0.000	-11.485	0.000	0.000	10.200	0.062	164.590	0.000
-5.400	0.871	3.063	0.000	-11.239	0.000	0.000	10.200	0.064	171.143	0.000
-5.300	0.869	3.064	0.000	-11.423	0.000	0.000	10.200	0.067	177.695	0.000
-5.200	0.870	3.062	0.000	-11.435	0.000	0.000	10.200	0.070	184.248	0.000
-5.100	0.870	3.064	0.000	-11.296	0.000	0.000	10.200	0.072	190.801	0.000
-5.000	0.873	3.062	0.000	-11.085	0.000	0.000	10.200	0.075	197.353	0.000
-4.900	0.871	3.062	0.000	-11.212	0.000	0.000	10.200	0.077	203.906	0.000
-4.800	0.871	3.063	0.000	-11.219	0.000	0.000	10.200	0.080	210.459	0.000
-4.700	0.871	3.063	0.000	-11.219	0.000	0.000	10.200	0.083	217.012	0.000
-4.600	0.871	3.063	0.000	-11.287	0.000	0.000	10.200	0.085	223.564	0.000
-4.500	0.873	3.064	0.000	-11.429	0.000	0.000	10.200	0.088	230.117	0.000
-4.400	0.872	3.064	0.000	-11.159	0.000	0.000	10.200	0.090	236.670	0.000
-4.300	0.872	3.063	0.000	-11.283	0.000	0.000	10.200	0.093	243.222	0.000
-4.200	0.871	3.061	0.000	-11.428	0.000	0.000	10.200	0.096	249.775	0.000
-4.100	0.873	3.061	0.000	-11.298	0.000	0.000	10.200	0.098	256.328	0.000
-4.000	0.872	3.060	0.000	-11.222	0.000	0.000	10.200	0.101	262.880	0.000
-3.900	0.871	3.062	0.000	-11.219	0.000	0.000	10.200	0.103	269.433	0.000
-3.800	0.872	3.062	0.000	-11.356	0.000	0.000	10.200	0.106	275.986	0.000
-3.700	0.870	3.060	0.000	-11.227	0.000	0.000	10.200	0.109	282.539	0.000
-3.600	0.871	3.060	0.000	-11.219	0.000	0.000	10.200	0.111	289.091	0.000
-3.500	0.872	3.062	0.000	-11.219	0.000	0.000	10.200	0.114	295.644	0.000
-3.400	0.872	3.061	0.000	-11.219	0.000	0.000	10.200	0.116	302.197	0.000
-3.300	0.871	3.062	0.000	-11.219	0.000	0.000	10.200	0.119	308.749	0.000
-3.200	0.871	3.062	0.001	-11.219	0.000	0.000	10.200	0.122	315.302	0.000
-3.100	0.871	3.061	0.000	-11.353	0.000	0.000	10.200	0.124	321.855	0.000
-3.000	0.871	3.062	0.000	-11.094	0.000	0.000	10.200	0.127	328.408	0.000
-2.900	0.872	3.061	0.000	-11.007	0.000	0.000	10.200	0.129	334.960	0.000
-2.800	0.872	3.061	0.000	-11.271	0.000	0.000	10.200	0.151	336.267	0.000
-2.700	0.870	3.060	0.000	-11.358	0.000	0.000	10.200	0.178	336.263	0.000
-2.600	0.871	3.062	0.000	-11.429	0.000	0.000	10.200	0.204	336.259	0.000
-2.500	0.872	3.061	0.000	-11.101	0.000	0.000	10.101	0.230	336.256	0.000
-2.400	0.870	3.062	0.000	-11.344	0.000	0.000	10.100	0.257	336.252	0.000
-2.300	0.872	3.062	0.000	-11.429	0.000	0.000	10.100	0.283	336.248	0.000
-2.200	0.872	3.060	0.000	-11.166	0.000	0.000	10.100	0.310	336.244	0.000
-2.100	0.871	3.062	0.000	-11.348	0.000	0.000	10.100	0.336	336.240	0.000
-2.000	0.870	3.061	0.000	-11.230	0.000	0.000	10.100	0.362	336.237	0.000
-1.900	0.872	3.062	0.000	-11.351	0.000	0.000	10.100	0.389	336.233	0.000
-1.800	0.873	3.062	0.000	-11.363	0.000	0.000	10.100	0.415	336.229	0.000
-1.700	0.874	3.062	0.000	-11.497	0.000	0.000	10.100	0.441	336.225	0.000
-1.600	0.873	3.061	0.000	-11.176	0.000	0.000	10.100	0.468	336.221	0.000
-1.500	0.874	3.060	0.000	-11.276	0.000	0.000	10.100	0.494	336.218	0.000
-1.400	0.873	3.061	0.000	-11.159	0.000	0.000	10.100	0.521	336.214	0.000
-1.300	0.873	3.061	0.000	-11.344	0.000	0.000	10.100	0.547	336.210	0.000
-1.200	0.873	3.060	0.000	-11.363	0.000	0.000	10.100	0.573	336.206	0.000
-1.100	0.873	3.059	0.000	-11.429	0.000	0.000	10.100	0.600	336.202	0.000
-1.000	0.873	3.060	0.000	-11.369	0.000	0.000	10.100	0.626	336.199	0.000
-0.900	0.873	3.060	0.000	-11.167	0.000	0.000	10.100	0.653	336.195	0.000
-0.800	0.873	3.061	0.000	-11.609	0.000	0.000	10.100	0.679	336.191	0.000
-0.700	0.873	3.061	0.000	-11.255	0.000	0.000	10.100	0.705	336.187	0.000
-0.600	0.874	3.060	0.000	-11.285	0.000	0.000	10.100	0.732	336.183	0.000
-0.500	0.873	3.060	0.000	-11.357	0.000	0.000	10.100	0.758	336.180	0.000
-0.400	0.873	3.061	0.000	-11.237	0.000	0.000	10.100	0.785	336.176	0.000
-0.300	0.873	3.060	0.000	-11.219	0.000	0.000	10.100	0.811	336.172	0.000
-0.200	0.874	3.061	0.000	-11.089	0.000	0.000	10.100	0.837	336.168	0.000
-0.100	0.874	3.062	0.000	-11.204	0.000	0.000	10.100	0.864	336.164	0.000
-0.000	0.874	3.061	0.000	-11.219	0.000	0.000	10.100	0.890	336.161	0.000
0.100	0.875	3.060	0.000	-11.219	0.000	0.000	10.100	0.917	336.157	0.000
0.200	0.875	3.059	0.000	-11.154	0.000	0.000	10.100	0.943	336.153	0.000
0.300	0.875	3.060	0.000	-11.407	0.000	0.000	10.100	0.969	336.149	0.000
0.400	0.875	3.061	0.000	-11.044	0.000	0.000	10.100	0.996	336.145	0.000
0.500	0.874	3.060	0.000	-11.325	0.000	0.000	10.100	1.022	336.142	0.000
0.600	0.876	3.062	0.000	-11.298	0.000	0.000	10.100	1.049	336.138	0.000
0.700	0.876	3.061	0.000	-11.421	0.000	0.000	10.100	1.075	336.134	0.000
0.800	0.876	3.061	0.000	-11.178	0.000	0.000	10.100	1.101	336.130	0.000
0.900	0.876	3.061	0.001	-11.339	0.000	0.000	10.100	1.128	336.126	0.000
1.000	0.875	3.062	0.000	-11.235	0.887	0.000	10.100	1.154	336.123	0.000
1.100	0.875	3.062	0.000	-11.155	1.000	0.000	10.100	1.181	336.119	0.000
1.200	0.876	3.061	0.000	-11.274	1.000	0.000	10.100	1.207	336.115	0.000
1.300	0.876	3.062	0.000	-11.673	1.000	0.000	10.100	1.233	336.111	0.000
1.400	0.876	3.061	0.000	-11.342	1.000	0.000	10.100	1.260	336.107	0.000
1.500	0.875	3.061	0.000	-11.418	1.000	0.000	10.100	1.286	336.104	0.000
1.600	0.876	3.061	0.000	-11.624	1.000	0.000	10.100	1.313	336.100	0.000
1.700	0.875	3.062	0.000	-11.398	1.000	0.000	10.100	1.339	336.096	0.000
1.800	0.876	3.062	0.000	-11.426	1.000	0.000	10.100	1.365	336.092	0.000
1.900	0.876	3.062	0.000	-11.182	1.000	0.000	10.100	1.392	336.088	0.000
2.000	0.876	3.059	0.000	-11.147	1.000	0.000	10.100	1.418	336.085	0.000
2.100	0.876	3.061	0.000	-11.588	1.000	0.000	10.100	1.445	336.081	0.000
2.200	0.876	3.060	0.000	-11.462	1.000	0.000	10.100	1.513	336.071	0.000
2.300	0.877	3.062	0.000	-11.373	1.000	0.000	10.100	1.592	336.059	0.000
2.400	0.878	3.062	0.000	-11.490	1.000	0.000	10.100	1.670	336.047	-0.977
2.500	0.877	3.062	0.000	-11.380	1.000	0.000	10.100	1.749	336.035	-0.007
2.600	0.878	3.062	0.000	-11.490	1.000	0.000	10.100	1.828	336.023	0.000
2.700	0.877	3.062	0.000	-11.444	1.000	0.000	10.100	1.907	336.012	0.000
2.800	0.878	3.060	0.000	-11.372	1.000	0.000	10.100	1.986	336.000	0.000
2.900	0.876	3.063	0.000	-11.550	1.000	0.000	10.100	2.064	335.988	0.000
3.000	0.876	3.062	0.000	-11.327	1.000	0.000	10.100	2.143	335.976	0.000
3.100	0.875	3.060	0.000	-11.165	1.000	0.000	10.100	2.222	335.964	0.000
3.200	0.875	3.060	0.000	-11.461	1.000	0.000	10.100	2.301	335.953	0.000
3.300	0.875	3.062	0.000	-11.384	1.000	0.000	10.100	2.380	335.941	0.000
3.400	0.875	3.062	0.000	-11.301	1.000	0.000	10.100	2.459	335.929	0.000
3.500	0.876	3.060	0.000	-11.353	1.000	0.000	10.100	2.537	335.917	0.000
3.600	0.875	3.061	0.000	-11.239	1.000	0.000	10.100	2.616	335.905	0.496
3.700	0.875	3.061	0.000	-11.281	1.000	0.000	10.100	2.695	335.894	0.500
3.800	0.875	3.061	0.000	-11.291	1.000	0.000	10.100	2.774	335.882	0.500
3.900	0.876	3.061	0.000	-11.229	1.000	0.000	10.100	2.853	335.870	0.004
4.000	0.876	3.062	0.000	-11.404	1.000	0.000	10.100	2.932	335.858	0.000
4.100	0.876	3.062	0.000	-11.373	1.000	0.694	10.100	3.010	335.846	0.000
4.200	0.876	3.062	0.000	-11.363	1.000	0.700	10.100	3.089	335.835	3.469
4.300	0.876	3.061	0.000	-11.239	1.000	1.443	10.100	3.168	335.823	5.978
4.400	0.876	3.060	0.001	-11.529	1.000	5.437	10.100	3.247	335.811	0.056
4.500	0.874	3.062	0.000	-11.456	1.000	5.648	10.100	3.326	335.799	2.477
4.600	0.876	3.065	0.000	-11.246	1.000	5.799	10.100	3.404	335.787	5.968
4.700	0.876	3.062	0.000	-11.219	1.000	6.716	10.100	3.483	335.776	5.009
4.800	0.876	3.063	0.000	-11.411	1.000	8.879	10.100	3.562	335.764	6.486
4.900	0.876	3.063	0.000	-11.370	1.000	10.138	10.100	3.641	335.752	13.433
5.000	0.876	3.062	0.000	-7.522	1.000	13.220	10.100	3.720	335.740	19.442
5.100	0.878	3.063	0.093	49.839	1.000	15.998	10.100	3.799	335.728	23.461
5.200	0.878	3.064	0.176	100.565	1.000	19.415	10.100	3.877	335.716	36.366
5.300	0.878	3.064	0.323	200.688	1.000	22.519	10.100	3.956	335.705	51.352
5.400	0.877	3.063	0.453	568.907	1.000	23.787	10.100	4.035	335.693	68.824
5.500	0.875	3.064	0.651	881.258	1.000	26.077	10.100	4.114	335.681	84.838
5.600	0.875	3.064	0.879	1139.423	1.000	25.828	10.100	4.193	335.669	116.686
5.700	0.875	3.065	1.133	1390.936	1.000	26.097	10.100	4.272	335.657	139.267
5.800	0.876	3.065	1.430	1642.892	1.000	26.422	10.100	4.350	335.646	167.207
5.900	0.876	3.065	1.730	1705.283	1.000	26.895	10.100	4.429	335.634	202.629
6.000	0.875	3.063	2.026	1736.069	1.000	28.112	10.100	4.508	335.622	234.664
6.100	0.875	3.065	2.328	1793.431	1.000	28.001	10.100	4.587	335.610	271.115
6.200	0.874	3.064	2.622	1839.963	1.000	27.827	10.100	4.666	335.598	304.179
6.300	0.874	3.065	2.919	1866.010	1.000	27.998	10.100	4.745	335.587	339.672
6.400	0.874	3.063	3.217	1829.938	1.000	27.827	10.100	4.823	335.575	372.560
6.500	0.875	3.063	3.506	1760.413	1.000	27.825	10.100	4.902	335.563	403.233
6.600	0.875	3.063	3.745	1646.326	1.000	27.676	10.100	4.981	335.551	432.268
6.700	0.876	3.063	3.945	1484.984	1.000	27.526	10.100	5.060	335.539	454.824
6.800	0.874	3.064	4.105	1243.702	1.000	27.674	10.100	5.139	335.528	469.393
6.900	0.876	3.064	4.198	906.723	1.000	27.824	10.100	5.217	335.516	489.360
7.000	0.877	3.062	4.264	587.673	1.000	27.825	10.100	5.296	335.504	503.403
7.100	0.876	3.066	4.309	429.571	1.000	28.123	10.100	5.375	335.492	511.446
7.200	0.875	3.065	4.336	347.960	1.000	28.746	10.100	5.767	335.435	518.948
7.300	0.875	3.064	4.361	243.200	1.000	31.083	10.100	6.232	335.366	526.446
7.400	0.876	3.065	4.410	206.759	1.000	32.292	10.100	6.697	335.298	536.430
7.500	0.876	3.064	4.464	311.951	1.000	32.796	10.100	7.162	335.230	547.421
7.600	0.874	3.063	4.550	498.183	1.000	33.718	10.100	7.627	335.162	557.429
7.700	0.876	3.064	4.703	667.542	1.000	34.469	10.100	8.092	335.094	574.372
7.800	0.876	3.064	4.884	831.760	1.000	34.649	10.100	8.557	335.025	595.843
7.900	0.876	3.064	5.077	1052.190	1.000	36.039	10.100	9.022	334.957	614.358
8.000	0.875	3.065	5.272	1242.649	1.000	36.372	10.100	9.487	334.889	639.784
8.100	0.874	3.064	5.526	1380.970	1.000	37.119	10.100	9.952	334.821	671.754
8.200	0.874	3.063	5.800	1571.486	1.000	36.976	10.100	10.417	334.753	702.255
8.300	0.873	3.064	6.092	1727.541	1.000	36.826	10.100	10.882	334.685	733.749
8.400	0.875	3.064	6.387	1805.974	1.000	36.974	10.100	11.347	334.616	766.743
8.500	0.875	3.064	6.712	1866.774	1.000	36.826	10.100	11.812	334.548	802.699
8.600	0.876	3.065	7.020	1869.410	1.000	36.974	10.100	12.277	334.480	835.731
8.700	0.877	3.066	7.311	1838.446	1.000	36.826	10.100	12.742	334.412	872.677
8.800	0.878	3.066	7.575	1802.332	1.000	36.974	10.100	13.207	334.344	907.196
8.900	0.878	3.066	7.849	1784.880	1.000	36.975	10.100	13.672	334.275	940.712
9.000	0.877	3.066	8.139	1766.390	1.000	36.826	10.100	14.137	334.207	974.207
9.100	0.877	3.065	8.405	1720.943	1.000	36.825	10.100	14.602	334.139	1007.212
9.200	0.877	3.066	8.671	1700.361	1.000	36.825	10.100	15.067	334.071	1040.208
9.300	0.878	3.066	8.916	1663.301	1.000	36.974	10.100	15.532	334.003	1071.717
9.400	0.877	3.066	9.177	1643.642	1.000	37.124	10.100	15.997	333.934	1103.202
9.500	0.879	3.066	9.420	1620.455	1.000	37.571	10.100	16.462	333.866	1133.713
9.600	0.879	3.066	9.665	1582.014	1.000	38.070	10.100	16.927	333.798	1163.719
9.700	0.878	3.066	9.912	1559.534	1.000	37.902	10.100	17.391	333.730	1198.670
9.800	0.877	3.066	10.179	1593.217	1.000	37.751	10.100	17.856	333.662	1226.230
9.900	0.877	3.066	10.425	1624.513	1.000	37.750	10.100	18.321	333.593	1254.726
10.000	0.878	3.066	10.664	1572.351	1.000	37.899	10.100	18.786	333.525	1285.695
10.100	0.879	3.065	10.885	1515.060	1.000	37.751	10.100	19.251	333.457	1313.726
10.200	0.879	3.066	11.122	1487.957	1.000	37.750	10.100	19.716	333.389	1341.255
10.300	0.879	3.066	11.323	1446.113	1.000	37.577	10.100	20.181	333.321	1370.216
10.400	0.879	3.066	11.565	1432.345	1.000	37.575	10.100	20.646	333.252	1397.155
10.500	0.879	3.066	11.787	1411.708	1.000	37.451	10.100	21.111	333.184	1422.737
10.600	0.879	3.066	11.999	1377.428	1.000	37.747	10.100	21.576	333.116	1450.224
10.700	0.879	3.066	12.192	1355.521	1.000	37.750	10.100	22.041	333.048	1475.727
10.800	0.879	3.066	12.387	1333.235	1.000	37.896	10.100	22.506	332.980	1500.842
10.900	0.878	3.066	12.588	1289.270	1.000	37.579	10.100	22.971	332.911	1525.236
11.000	0.879	3.066	12.782	1264.495	1.000	37.575	10.100	23.436	332.843	1549.736
11.100	0.879	3.066	12.979	1261.241	1.000	37.575	10.001	23.901	332.775	1572.259
11.200	0.880	3.066	13.176	1229.236	1.000	37.575	10.000	24.366	332.707	1596.234
11.300	0.879	3.066	13.372	1184.547	1.000	37.451	10.000	24.831	332.639	1618.256
11.400	0.878	3.066	13.561	1170.034	1.000	37.574	10.000	25.296	332.570	1640.256
11.500	0.879	3.066	13.715	1138.348	1.000	37.748	10.000	25.761	332.502	1661.718
11.600	0.879	3.066	13.902	1091.820	1.000	37.750	10.000	26.226	332.434	1682.273
11.700	0.879	3.067	14.050	1075.347	1.000	37.750	10.000	26.691	332.366	1704.245
11.800	0.879	3.066	14.221	1072.913	1.000	37.750	10.000	27.156	332.298	1722.790
11.900	0.879	3.066	14.392	1032.842	1.000	37.898	10.000	27.621	332.229	1742.768
12.000	0.879	3.067	14.537	997.115	1.000	37.752	10.000	28.086	332.161	1762.266
12.100	0.880	3.069	14.684	984.523	1.000	37.750	10.000	28.551	332.093	1780.287
12.200	0.879	3.067	14.828	944.569	1.000	38.071	10.000	28.254	332.127	1798.288
12.300	0.879	3.067	14.977	931.739	1.000	37.754	10.000	27.777	332.185	1815.291
12.400	0.879	3.069	15.121	930.099	1.000	37.750	10.000	27.300	332.243	1832.789
12.500	0.878	3.068	15.237	891.263	1.000	37.898	10.000	26.823	332.301	1849.303
12.600	0.879	3.068	15.384	873.738	1.000	37.900	10.000	26.346	332.359	1865.801
12.700	0.879	3.068	15.512	840.586	1.000	37.900	10.000	25.869	332.417	1883.281
12.800	0.878	3.068	15.656	819.682	1.000	38.073	10.000	25.392	332.475	1897.820
12.900	0.879	3.067	15.775	834.113	1.000	38.075	10.000	24.915	332.533	1913.302
13.000	0.879	3.067	15.900	816.815	1.000	38.075	10.000	24.438	332.591	1930.401
13.100	0.879	3.068	16.016	805.573	1.000	38.371	10.000	23.960	332.649	1930.507
13.200	0.880	3.066	16.113	721.157	1.000	38.824	10.000	23.483	332.706	1955.420
13.300	0.878	3.069	16.212	531.880	1.000	38.999	10.000	23.006	332.764	1967.963
13.400	0.882	3.067	16.306	593.964	1.000	40.221	10.000	22.529	332.822	1976.473
13.500	0.880	3.067	16.372	625.427	1.000	40.673	10.000	22.052	332.880	1988.460
13.600	0.881	3.068	16.452	557.808	1.000	40.550	10.000	21.575	332.938	1988.002
13.700	0.882	3.069	16.518	507.967	1.000	40.675	10.000	21.098	332.996	2005.937
13.800	0.880	3.068	16.569	354.778	1.000	40.675	10.000	20.621	333.054	2015.464
13.900	0.880	3.068	16.643	394.212	1.000	40.675	10.000	20.143	333.112	2021.478
14.000	0.880	3.067	16.696	449.545	1.000	41.173	10.000	19.666	333.170	2029.470
14.100	0.882	3.067	16.764	401.856	1.000	41.922	10.000	19.189	333.228	2037.470
14.200	0.880	3.069	16.839	407.432	1.000	42.398	10.000	18.712	333.286	2045.467
14.300	0.879	3.069	16.891	406.141	1.000	43.944	10.000	18.235	333.344	2053.467
14.400	0.881	3.070	16.961	392.620	1.000	44.099	10.000	17.758	333.402	2061.464
14.500	0.882	3.069	17.034	418.750	1.000	44.872	10.000	17.281	333.460	2069.465
14.600	0.880	3.070	17.085	412.178	1.000	46.593	10.000	16.804	333.518	2076.969
14.700	0.881	3.072	17.149	405.677	1.000	47.371	10.000	16.326	333.576	2070.034
14.800	0.881	3.071	17.176	310.394	1.000	47.848	10.000	15.849	333.634	2086.423
14.900	0.881	3.071	17.197	136.383	1.000	51.209	10.000	15.372	333.692	2092.471
15.000	0.882	3.070	17.228	222.168	1.000	52.021	10.000	14.895	333.750	2093.495
15.100	0.882	3.070	17.277	242.452	1.000	52.149	10.000	14.418	333.808	2099.472
15.200	0.879	3.070	17.299	217.065	1.000	52.647	10.000	13.941	333.866	2102.483
15.300	0.882	3.070	17.346	204.055	1.000	55.734	10.000	13.464	333.924	2094.043
15.400	0.880	3.072	17.347	114.308	1.000	58.510	10.000	12.987	333.982	2104.942
15.500	0.881	3.071	17.346	-13.975	1.000	58.674	10.000	12.510	334.040	2108.979
15.600	0.882	3.070	17.346	11.974	1.000	60.093	10.000	12.032	334.098	2105.518
15.700	0.882	3.071	17.346	58.055	1.000	65.941	10.000	11.555	334.156	2107.488
15.800	0.882	3.071	17.346	16.232	1.000	68.461	10.000	11.078	334.214	2107.997
15.900	0.884	3.070	17.347	13.169	1.000	73.073	10.000	10.601	334.272	2109.491
16.000	0.881	3.070	17.347	54.787	1.000	80.183	10.000	10.124	334.330	2109.003
16.100	0.882	3.070	17.346	26.184	1.000	84.280	10.000	9.647	334.388	2099.546
16.200	0.881	3.070	17.339	-32.690	1.000	91.391	10.000	9.170	334.445	2105.471
16.300	0.882	3.069	17.294	-161.499	1.000	98.517	10.000	8.693	334.503	2107.989
16.400	0.881	3.070	17.296	-133.110	1.000	98.699	10.000	8.215	334.561	2102.523
16.500	0.882	3.071	17.293	-62.023	1.000	98.872	10.000	7.738	334.619	2101.023
16.600	0.882	3.071	17.256	-98.548	1.000	98.875	10.000	7.261	334.677	2099.006
16.700	0.880	3.069	17.244	-102.001	1.000	98.998	10.000	6.784	334.735	2098.506
16.800	0.880	3.071	17.244	-113.304	1.000	99.000	10.000	6.307	334.793	2095.537
16.900	0.882	3.070	17.207	-110.384	1.000	99.000	10.000	5.830	334.851	2094.512
17.000	0.879	3.070	17.196	-88.117	1.000	99.000	10.000	5.353	334.909	2093.512
17.100	0.881	3.071	17.192	-104.132	1.000	99.000	10.000	4.876	334.967	2076.207
17.200	0.881	3.070	17.153	-134.605	1.000	99.000	10.000	4.715	334.991	2062.889
17.300	0.880	3.071	17.096	-293.553	1.000	99.000	10.000	4.645	335.006	2086.685
17.400	0.881	3.069	17.047	-357.474	1.000	99.000	10.000	4.575	335.020	2076.627
17.500	0.879	3.070	17.010	-201.657	1.000	99.000	10.000	4.505	335.034	2065.635
17.600	0.878	3.071	16.996	-229.337	1.000	99.000	10.000	4.435	335.049	2067.970
17.700	0.879	3.069	16.950	-255.793	1.000	99.148	10.000	4.365	335.063	2060.594
17.800	0.879	3.070	16.902	-251.274	1.000	99.150	10.000	4.295	335.078	2057.044
17.900	0.880	3.070	16.865	-261.419	1.000	99.150	10.000	4.225	335.092	2052.557
18.000	0.879	3.070	16.852	-222.642	1.000	99.150	10.000	4.155	335.107	2048.092
18.100	0.880	3.071	16.801	-246.575	1.000	99.150	10.000	4.085	335.121	2044.052
18.200	0.879	3.071	16.755	-235.380	1.000	99.150	10.000	4.015	335.135	2039.015
18.300	0.879	3.071	16.719	-249.489	1.000	99.150	10.000	3.945	335.150	2035.511
18.400	0.879	3.070	16.706	-264.454	1.000	99.150	10.000	3.875	335.164	2031.046
18.500	0.879	3.070	16.664	-234.891	1.000	99.150	10.000	3.805	335.179	2026.017
18.600	0.879	3.069	16.618	-251.355	1.000	99.150	10.000	3.735	335.193	2022.512
18.700	0.878	3.070	16.572	-239.665	1.000	99.150	10.000	3.665	335.207	2017.020
18.800	0.879	3.071	16.561	-238.636	1.000	99.150	10.000	3.595	335.222	2013.018
18.900	0.879	3.071	16.512	-263.468	1.000	99.150	10.000	3.525	335.236	2009.015
19.000	0.878	3.071	16.465	-224.608	1.000	99.150	10.000	3.455	335.251	2004.517
19.100	0.879	3.070	16.463	-231.405	1.000	99.150	10.000	3.385	335.265	2000.017
19.200	0.878	3.069	16.410	-234.967	1.000	99.150	10.000	3.314	335.279	1996.017
19.300	0.878	3.069	16.367	-231.032	1.000	99.150	10.000	3.244	335.294	1991.519
19.400	0.877	3.069	16.330	-259.469	1.000	99.001	10.000	3.174	335.308	1988.015
19.500	0.878	3.069	16.315	-233.645	1.000	99.149	10.000	3.104	335.323	1983.023
19.600	0.877	3.069	16.267	-226.429	1.000	99.001	10.000	3.034	335.337	1978.519
19.700	0.878	3.070	16.228	-242.944	1.000	99.149	10.000	2.964	335.351	1975.017
19.800	0.879	3.071	16.183	-239.509	1.000	99.150	10.000	2.894	335.366	1970.521
19.900	0.876	3.071	16.171	-258.870	1.000	99.150	10.000	2.824	335.380	1966.021
20.000	0.877	3.070	16.123	-239.058	1.000	99.001	10.000	2.754	335.395	1962.020
20.100	0.877	3.069	16.086	-221.757	1.000	99.000	10.000	2.684	335.409	1957.024
20.200	0.875	3.071	16.073	-241.618	1.000	89.101	10.000	2.614	335.424	1953.611
20.300	0.874	3.071	16.024	-232.386	1.000	58.231	10.000	2.544	335.438	1949.520
20.400	0.874	3.070	15.977	-250.403	1.000	0.318	10.000	2.474	335.452	1945.025
20.500	0.875	3.071	15.938	-248.591	1.000	0.000	10.000	2.404	335.467	1941.022
20.600	0.876	3.071	15.924	-223.350	1.000	0.000	10.000	2.334	335.481	1928.564
20.700	0.875	3.069	15.832	-300.248	1.000	0.000	10.000	2.264	335.496	1893.704
20.800	0.873	3.070	15.606	-728.116	1.000	0.000	10.000	2.194	335.510	1871.622
20.900	0.873	3.071	15.311	-1595.944	1.000	0.000	10.000	2.124	335.524	1839.687
21.000	0.873	3.070	14.894	-2165.167	1.000	0.000	10.000	2.054	335.539	1797.267
21.100	0.873	3.070	14.457	-2355.627	1.000	0.000	10.000	1.984	335.553	1768.666
21.200	0.873	3.069	14.096	-2430.968	1.000	0.000	10.000	1.913	335.568	1728.243
21.300	0.875	3.070	13.806	-2051.182	1.000	0.000	10.000	1.843	335.582	1678.306
21.400	0.871	3.071	13.461	-2007.004	1.000	0.000	10.000	1.773	335.596	1645.204
21.500	0.873	3.069	13.118	-2148.493	1.000	0.000	10.000	1.703	335.611	1620.655
21.600	0.871	3.069	12.917	-1919.798	1.000	0.000	10.000	1.633	335.625	1614.537
21.700	0.871	3.066	12.849	-1081.286	1.000	0.000	10.000	1.563	335.640	1607.048
21.800	0.871	3.067	12.852	-474.779	1.000	0.000	10.000	1.493	335.654	1599.549
21.900	0.869	3.067	12.852	-138.875	1.000	0.000	10.000	1.423	335.668	1542.892
22.000	0.872	3.066	12.851	-171.402	1.000	0.000	10.000	1.353	335.683	1582.639
22.100	0.869	3.068	12.803	-341.489	1.000	0.000	10.000	1.283	335.697	1578.035
22.200	0.870	3.069	12.802	-204.867	1.000	0.000	10.000	1.266	335.700	1544.739
22.300	0.867	3.067	12.764	-183.196	1.000	0.000	10.000	1.261	335.700	1549.463
22.400	0.866	3.069	12.674	-293.402	1.000	0.000	10.000	1.255	335.700	1563.893
22.500	0.866	3.069	12.565	-586.885	1.000	0.000	10.000	1.250	335.700	1536.703
22.600	0.866	3.067	12.460	-1409.960	1.000	0.000	10.000	1.245	335.700	1513.171
22.700	0.866	3.069	12.237	-1699.026	1.000	0.000	10.000	1.240	335.700	1501.089
22.800	0.866	3.068	11.944	-1619.494	1.000	0.000	10.000	1.235	335.700	1483.139
22.900	0.867	3.068	11.651	-1992.950	1.000	0.000	10.000	1.230	335.700	1422.965
23.000	0.866	3.066	11.315	-2519.676	1.000	0.000	10.000	1.224	335.700	1393.465
23.100	0.866	3.067	10.893	-2717.866	1.000	0.000	10.000	1.219	335.700	1358.277
23.200	0.865	3.069	10.402	-2874.410	1.000	0.000	10.000	1.214	335.700	1281.616
23.300	0.866	3.071	9.916	-3402.715	1.000	0.000	10.000	1.209	335.700	1244.802
23.400	0.864	3.066	9.428	-3723.828	1.000	0.000	10.000	1.204	335.700	1168.632
23.500	0.865	3.068	8.867	-3698.308	1.000	0.000	10.000	1.198	335.700	1106.525
23.600	0.863	3.066	8.270	-3702.579	1.000	0.000	10.000	1.193	335.700	1035.596
23.700	0.866	3.067	7.682	-3672.712	1.000	0.000	10.000	1.188	335.700	965.601
23.800	0.864	3.067	7.093	-3774.109	1.000	0.000	10.000	1.183	335.700	897.620
23.900	0.864	3.067	6.510	-3996.408	1.000	0.000	10.000	1.178	335.700	823.149
24.000	0.861	3.065	5.877	-4149.018	1.000	0.000	10.000	1.173	335.700	751.627
24.100	0.860	3.066	5.217	-4285.220	1.000	0.000	10.000	1.167	335.700	670.221
24.200	0.860	3.066	4.579	-4404.834	1.000	0.000	10.000	1.162	335.700	592.209
24.300	0.860	3.066	3.897	-4413.060	1.000	0.000	10.000	1.157	335.700	509.422
24.400	0.860	3.066	3.212	-4443.522	1.000	0.000	10.000	1.152	335.700	426.068
24.500	0.860	3.066	2.485	-4564.004	1.000	0.000	10.000	1.147	335.700	344.279
24.600	0.860	3.066	1.757	-4702.560	1.000	0.000	10.000	1.141	335.700	258.521
24.700	0.860	3.066	1.023	-4801.849	1.000	0.000	10.000	1.136	335.700	178.262
24.800	0.857	3.066	0.295	-4896.666	1.000	0.000	10.000	1.131	335.700	89.141
24.900	0.856	3.066	0.005	-98.167	1.000	0.000	10.000	1.126	335.700	-2.565
25.000	0.858	3.066	0.000	-680.104	1.000	0.000	10.000	1.121	335.700	-17.318
25.100	0.856	3.066	0.000	-562.772	1.000	0.000	10.000	1.116	335.700	-4.628
25.200	0.856	3.066	0.183	-27.971	1.000	0.000	10.000	1.110	335.700	1.899
25.300	0.856	3.064	0.246	210.769	1.000	0.000	10.000	1.105	335.700	0.011
25.400	0.856	3.066	0.035	169.776	1.000	0.000	10.000	1.100	335.700	0.494
25.500	0.855	3.065	0.001	-10.580	1.000	0.000	10.000	1.095	335.700	0.990
25.600	0.853	3.064	0.000	-221.770	1.000	0.000	10.000	1.090	335.700	0.008
25.700	0.853	3.064	0.000	-16.710	1.000	0.000	10.000	1.084	335.700	-0.497
25.800	0.853	3.064	0.078	-11.080	1.000	0.000	10.000	1.079	335.700	-0.006
25.900	0.852	3.063	0.099	41.588	1.000	0.000	10.000	1.074	335.700	0.000
26.000	0.853	3.063	0.014	-9.737	1.000	0.000	10.000	1.069	335.700	0.000
26.100	0.853	3.064	0.000	-11.291	1.000	0.000	10.000	1.064	335.700	0.000
26.200	0.853	3.062	0.000	-11.361	1.000	0.000	10.000	1.059	335.700	0.000
26.300	0.852	3.065	0.000	-11.432	1.000	0.000	10.000	1.053	335.700	0.000
26.400	0.849	3.063	0.029	-11.435	1.000	0.000	10.000	1.048	335.700	0.000
26.500	0.847	3.063	0.049	-11.366	1.000	0.000	10.000	1.043	335.700	0.000
26.600	0.849	3.063	0.002	-11.224	1.000	0.000	10.000	1.038	335.700	0.000
26.700	0.847	3.064	0.000	-11.358	1.000	0.000	10.000	1.033	335.700	0.000
26.800	0.847	3.065	0.000	-11.294	1.000	0.000	10.000	1.027	335.700	0.000
26.900	0.848	3.064	0.000	-11.776	1.000	0.000	10.000	1.022	335.700	0.000
27.000	0.847	3.064	0.000	-11.247	1.000	0.000	10.000	1.017	335.700	0.000
27.100	0.845	3.064	0.000	-11.424	1.000	0.000	10.000	1.012	335.700	0.000
27.200	0.843	3.062	0.000	-11.367	1.000	0.000	10.000	1.010	335.700	0.000
27.300	0.841	3.063	0.000	-11.226	1.000	0.000	10.000	1.010	335.701	0.000
27.400	0.841	3.065	0.000	-11.557	1.000	0.000	10.000	1.009	335.702	0.000
27.500	0.840	3.064	0.000	-11.373	1.000	0.000	10.000	1.009	335.702	0.000
27.600	0.840	3.063	0.000	-11.225	1.000	0.000	10.000	1.009	335.703	0.000
27.700	0.840	3.062	0.000	-11.013	1.000	0.000	10.000	1.009	335.703	0.000
27.800	0.840	3.063	0.000	-11.275	1.000	0.000	10.000	1.009	335.704	0.000
27.900	0.841	3.063	0.000	-11.428	1.000	0.000	10.000	1.008	335.705	0.000
28.000	0.839	3.064	0.000	-11.368	1.000	0.000	10.000	1.008	335.705	0.000
28.100	0.837	3.061	0.000	-11.295	1.000	0.000	10.000	1.008	335.706	0.000
28.200	0.837	3.062	0.000	-11.159	1.000	0.000	10.000	1.008	335.706	0.000
28.300	0.836	3.060	0.000	-11.282	1.000	0.000	10.000	1.008	335.707	0.000
28.400	0.838	3.062	0.000	-11.223	1.000	0.000	10.000	1.007	335.708	0.000
28.500	0.837	3.060	0.000	-11.163	1.000	0.000	10.000	1.007	335.708	0.000
28.600	0.837	3.062	0.000	-11.279	1.000	0.000	10.000	1.007	335.709	0.000
28.700	0.834	3.061	0.000	-11.224	1.000	0.000	10.000	1.007	335.709	0.000
28.800	0.833	3.060	0.000	-11.353	1.000	0.000	10.000	1.007	335.710	0.000
28.900	0.834	3.062	0.000	-11.363	1.000	0.000	10.000	1.006	335.711	0.000
29.000	0.831	3.059	0.000	-11.497	1.000	0.000	10.000	1.006	335.711	0.000
29.100	0.831	3.061	0.000	-11.574	1.000	0.000	10.000	1.006	335.712	0.000
29.200	0.831	3.061	0.000	-11.646	1.000	0.000	10.000	1.006	335.712	0.000
29.300	0.832	3.060	0.000	-11.314	1.000	0.000	10.000	1.006	335.713	0.000
29.400	0.831	3.060	0.000	-11.423	1.000	0.000	10.000	1.005	335.714	0.000
29.500	0.832	3.062	0.000	-11.435	1.000	0.000	10.000	1.005	335.714	0.000
29.600	0.830	3.062	0.000	-11.435	1.000	0.000	10.000	1.005	335.715	0.000
29.700	0.828	3.060	0.000	-11.501	1.000	0.000	10.000	1.005	335.715	0.000
29.800	0.827	3.062	0.000	-11.308	1.000	0.000	10.000	1.005	335.716	0.000
29.900	0.827	3.061	0.000	-11.357	1.000	0.000	10.000	1.004	335.717	0.000
30.000	0.827	3.060	0.000	-11.231	1.000	0.000	10.000	1.004	335.717	3.456
30.100	0.827	3.061	0.001	-11.219	1.000	0.000	10.000	1.004	335.718	2.008
30.200	0.827	3.061	0.000	-11.486	1.000	0.000	10.000	1.004	335.718	-0.280
30.300	0.827	3.060	0.000	-11.307	1.000	0.000	10.000	1.004	335.719	-0.010
30.400	0.827	3.060	0.000	-11.557	1.000	0.000	10.000	1.003	335.720	0.000
30.500	0.823	3.061	0.000	-11.180	1.000	0.000	10.000	1.003	335.720	0.000
30.600	0.822	3.062	0.000	-11.478	1.000	0.000	10.000	1.003	335.721	0.000
30.700	0.822	3.062	0.000	-11.308	1.000	0.000	10.000	1.003	335.721	0.000
30.800	0.821	3.062	0.000	-11.357	1.000	0.000	10.000	1.003	335.722	0.000
30.900	0.824	3.062	0.000	-11.164	1.000	0.000	10.000	1.002	335.723	0.000
31.000	0.823	3.061	0.000	-11.609	1.000	0.000	10.000	1.002	335.723	0.000
31.100	0.822	3.060	0.000	-11.387	1.000	0.000	10.000	1.002	335.724	0.000
31.200	0.821	3.060	0.000	-11.297	1.000	0.000	10.000	1.002	335.724	0.000
31.300	0.821	3.061	0.000	-11.422	1.000	0.000	10.000	1.002	335.725	0.000
31.400	0.819	3.061	0.000	-11.369	1.000	0.000	10.000	1.001	335.726	0.000
31.500	0.821	3.061	0.000	-11.363	1.000	0.000	10.000	1.001	335.726	0.000
31.600	0.820	3.060	0.000	-11.232	1.000	0.000	10.000	1.001	335.727	0.000
31.700	0.821	3.060	0.000	-11.347	1.000	0.000	10.000	1.001	335.727	0.000
31.800	0.820	3.060	0.000	-11.363	1.000	0.000	10.000	1.001	335.728	0.000
31.900	0.819	3.062	0.000	-11.492	1.000	0.000	10.000	1.000	335.729	0.000
32.000	0.816	3.064	0.000	-11.377	1.000	0.000	10.000	1.000	335.729	0.000
32.100	0.814	3.064	0.000	-11.557	1.000	0.000	9.901	1.000	335.730	0.000
32.200	0.815	3.063	0.000	-11.450	1.000	0.000	9.900	0.996	335.731	0.000
32.300	0.816	3.064	0.000	-11.370	1.000	0.000	9.900	0.990	335.732	0.000
32.400	0.814	3.064	0.000	-11.493	1.000	0.000	9.900	0.984	335.734	0.000
32.500	0.815	3.063	0.000	-11.507	1.000	0.000	9.900	0.977	335.735	0.000
32.600	0.814	3.065	0.000	-11.248	1.000	0.000	9.900	0.971	335.737	0.000
32.700	0.814	3.063	0.000	-11.283	1.000	0.000	9.900	0.965	335.738	0.000
32.800	0.813	3.064	0.000	-11.163	1.000	0.000	9.900	0.959	335.739	0.000
32.900	0.811	3.063	0.000	-11.210	1.000	0.000	9.900	0.953	335.741	0.000
33.000	0.810	3.064	0.000	-11.219	1.000	0.000	9.900	0.946	335.742	0.000
33.100	0.811	3.064	0.000	-11.411	1.000	0.000	9.900	0.940	335.744	0.000
33.200	0.811	3.064	0.000	-11.626	1.000	0.000	9.900	0.934	335.745	0.000
33.300	0.812	3.063	0.000	-11.461	1.000	0.000	9.900	0.928	335.746	0.000
33.400	0.811	3.062	0.000	-11.435	1.000	0.000	9.900	0.922	335.748	0.000
33.500	0.811	3.064	0.000	-11.385	1.000	0.000	9.900	0.915	335.749	0.000
33.600	0.809	3.065	0.000	-11.423	1.000	0.000	9.900	0.909	335.751	0.000
33.700	0.808	3.066	0.000	-11.180	1.000	0.000	9.900	0.903	335.752	0.000
33.800	0.807	3.066	0.000	-11.463	1.000	0.000	9.900	0.897	335.753	0.000
33.900	0.807	3.066	0.000	-11.252	1.000	0.000	9.900	0.891	335.755	0.000
34.000	0.808	3.067	0.001	-11.155	1.000	0.000	9.900	0.884	335.756	0.000
34.100	0.807	3.066	0.000	-11.273	1.000	0.000	9.900	0.878	335.758	0.000
34.200	0.806	3.066	0.001	-11.291	1.000	0.000	9.900	0.872	335.759	0.000
34.300	0.807	3.066	0.000	-11.354	1.000	0.000	9.900	0.866	335.760	0.000
34.400	0.807	3.066	0.000	-11.112	1.000	0.000	9.900	0.860	335.762	0.000
34.500	0.805	3.066	0.000	-11.262	1.000	0.000	9.900	0.853	335.763	0.000
34.600	0.803	3.066	0.000	-11.291	1.000	0.000	9.900	0.847	335.765	0.000
34.700	0.804	3.066	0.000	-11.165	1.000	0.000	9.900	0.841	335.766	0.000
34.800	0.806	3.066	0.000	-11.084	1.000	0.000	9.900	0.835	335.767	0.000
34.900	0.805	3.066	0.000	-11.199	1.000	0.000	9.900	0.829	335.769	0.000
35.000	0.804	3.066	0.000	-11.344	1.000	0.000	9.900	0.822	335.770	0.000
35.100	0.803	3.066	0.000	-11.174	1.000	0.000	9.900	0.816	335.771	0.000
35.200	0.803	3.067	0.000	-11.208	1.000	0.000	9.900	0.810	335.773	0.000
35.300	0.802	3.068	0.000	-11.469	1.000	0.000	9.900	0.804	335.774	0.000
35.400	0.803	3.066	0.000	-11.254	1.000	0.000	9.900	0.798	335.776	0.000
35.500	0.802	3.068	0.000	-11.282	1.000	0.000	9.900	0.791	335.777	0.000
35.600	0.802	3.067	0.000	-11.228	1.000	0.000	9.900	0.785	335.778	0.000
35.700	0.801	3.067	0.000	-11.343	1.000	0.000	9.900	0.779	335.780	0.000
35.800	0.802	3.068	0.000	-11.179	1.000	0.000	9.900	0.773	335.781	0.000
35.900	0.802	3.069	0.000	-11.395	1.000	0.000	9.900	0.767	335.783	0.000
36.000	0.801	3.068	0.000	-11.309	1.000	0.000	9.900	0.760	335.784	0.000
36.100	0.798	3.068	0.000	-11.353	1.000	0.000	9.900	0.754	335.785	0.000
36.200	0.799	3.068	0.000	-11.240	1.000	0.000	9.900	0.748	335.787	0.000
36.300	0.798	3.067	0.000	-11.466	1.000	0.000	9.900	0.742	335.788	0.000
36.400	0.798	3.067	0.000	-11.260	1.000	0.000	9.900	0.736	335.790	0.000
36.500	0.798	3.068	0.000	-11.280	1.000	0.000	9.900	0.729	335.791	0.000
36.600	0.796	3.067	0.000	-11.291	1.000	0.000	9.900	0.723	335.792	0.000
36.700	0.797	3.067	0.000	-11.291	1.000	0.000	9.900	0.717	335.794	0.000
36.800	0.796	3.068	0.000	-11.599	1.000	0.000	9.900	0.711	335.795	0.000
36.900	0.796	3.070	0.000	-11.344	1.000	0.000	9.900	0.705	335.797	0.000
37.000	0.795	3.071	0.000	-11.536	1.000	0.000	9.900	0.698	335.798	0.000
37.100	0.795	3.070	0.000	-11.332	1.000	0.000	9.900	0.692	335.799	0.000
37.200	0.795	3.072	0.000	-11.229	1.000	0.000	9.900	0.681	335.802	0.000
37.300	0.796	3.072	0.000	-11.219	1.000	0.000	9.900	0.667	335.804	0.000
37.400	0.795	3.070	0.000	-11.410	1.000	0.000	9.900	0.653	335.807	0.000
37.500	0.795	3.071	0.000	-11.240	1.000	0.000	9.900	0.639	335.809	0.000
37.600	0.796	3.071	0.000	-11.286	1.000	0.000	9.900	0.625	335.812	0.000
37.700	0.794	3.072	0.000	-11.154	1.000	0.000	9.900	0.611	335.815	0.000
37.800	0.794	3.072	0.000	-11.285	1.000	0.000	9.900	0.597	335.817	0.000
37.900	0.794	3.072	0.000	-11.150	1.000	0.000	9.900	0.583	335.820	0.000
38.000	0.794	3.072	0.000	-11.290	1.000	0.000	9.900	0.569	335.822	0.000
38.100	0.793	3.072	0.000	-11.362	1.000	0.000	9.900	0.555	335.825	0.000
38.200	0.794	3.072	0.000	-11.290	1.000	0.000	9.900	0.541	335.828	0.000
38.300	0.795	3.072	0.000	-11.219	1.000	0.000	9.900	0.527	335.830	0.000
38.400	0.792	3.072	0.000	-11.226	1.000	0.000	9.900	0.513	335.833	0.000
38.500	0.791	3.071	0.000	-11.362	1.000	0.000	9.900	0.499	335.835	0.000
38.600	0.788	3.072	0.000	-11.284	1.000	0.000	9.900	0.485	335.838	0.000
38.700	0.788	3.072	0.000	-11.241	1.000	0.000	9.900	0.471	335.841	0.000
38.800	0.790	3.072	0.000	-11.417	1.000	0.000	9.900	0.457	335.843	0.000
38.900	0.788	3.072	0.000	-11.329	1.000	0.000	9.900	0.443	335.846	0.000
39.000	0.789	3.072	0.000	-11.525	1.000	0.000	9.900	0.429	335.848	0.000
39.100	0.789	3.072	0.000	-11.231	1.000	0.000	9.900	0.415	335.851	0.000
39.200	0.790	3.072	0.000	-11.316	1.000	0.000	9.900	0.401	335.854	0.000
39.300	0.790	3.073	0.000	-11.410	1.000	0.000	9.900	0.387	335.856	0.000
39.400	0.790	3.073	0.000	-11.329	1.000	0.000	9.900	0.373	335.859	0.000
39.500	0.789	3.074	0.000	-11.457	1.000	0.000	9.900	0.359	335.861	0.000
39.600	0.790	3.074	0.000	-11.255	1.000	0.000	9.900	0.345	335.864	0.000
39.700	0.789	3.073	0.000	-11.485	1.000	0.000	9.900	0.331	335.867	0.000
39.800	0.788	3.073	0.000	-11.624	1.000	0.000	9.900	0.317	335.869	0.000
39.900	0.788	3.073	0.000	-11.233	1.000	0.000	9.900	0.303	335.872	0.000
40.000	0.788	3.076	0.000	-11.590	1.000	0.000	9.900	0.289	335.874	0.000
40.100	0.788	3.076	0.000	-11.279	1.000	0.000	9.900	0.275	335.877	0.000
40.200	0.788	3.077	0.000	-11.207	1.000	0.000	9.900	0.261	335.880	0.000
40.300	0.788	3.076	0.000	-11.159	1.000	0.000	9.900	0.247	335.882	0.000
40.400	0.788	3.076	0.000	-11.242	1.000	0.000	9.900	0.233	335.885	0.000
40.500	0.788	3.077	0.000	-11.363	1.000	0.000	9.900	0.219	335.887	0.000
40.600	0.788	3.077	0.000	-11.363	1.000	0.000	9.900	0.205	335.890	0.000
40.700	0.788	3.076	0.000	-11.339	1.000	0.000	9.900	0.191	335.893	0.000
40.800	0.787	3.076	0.000	-11.207	1.000	0.000	9.900	0.177	335.895	0.000
40.900	0.787	3.077	0.000	-11.170	1.000	0.000	9.900	0.163	335.898	0.000
41.000	0.785	3.075	0.000	-11.279	1.000	0.000	9.900	0.149	335.900	0.000
41.100	0.785	3.076	0.000	-11.207	1.000	0.000	9.900	0.135	335.903	0.000
41.200	0.785	3.076	0.000	-11.178	1.000	0.000	9.900	0.121	335.906	0.000
41.300	0.785	3.078	0.000	-11.363	1.000	0.000	9.900	0.107	335.908	0.000
41.400	0.785	3.076	0.000	-11.352	1.000	0.000	9.900	0.093	335.911	0.000
41.500	0.785	3.075	0.000	-11.313	1.000	0.000	9.900	0.079	335.913	0.000
41.600	0.786	3.076	0.000	-11.424	1.000	0.000	9.900	0.065	335.916	0.000
41.700	0.783	3.079	0.000	-11.330	1.000	0.000	9.900	0.051	335.919	0.000
41.800	0.784	3.079	0.000	-11.187	1.000	0.000	9.900	0.037	335.921	0.000
41.900	0.783	3.079	0.000	-11.445	1.000	0.000	9.900	0.023	335.924	0.000
42.000	0.784	3.079	0.000	-11.518	1.000	0.000	9.900	0.009	335.926	0.000
42.100	0.784	3.080	0.000	-11.547	1.000	0.000	9.900	-0.005	335.929	0.000
42.200	0.784	3.078	0.000	-11.363	1.000	0.000	9.900	-0.010	335.930	0.000
42.300	0.784	3.078	0.000	-11.353	1.000	0.000	9.900	-0.010	335.931	0.000
42.400	0.782	3.079	0.000	-11.271	1.000	0.000	9.900	-0.010	335.932	0.000
42.500	0.782	3.079	0.000	-11.233	1.000	0.000	9.900	-0.010	335.932	0.000
42.600	0.782	3.080	0.001	-11.718	1.000	0.000	9.900	-0.010	335.933	0.000
42.700	0.782	3.079	0.000	-11.219	1.000	0.000	9.900	-0.010	335.933	0.000
42.800	0.781	3.079	0.000	-11.265	1.000	0.000	9.900	-0.010	335.934	0.000
42.900	0.780	3.079	0.000	-11.533	1.000	0.000	9.900	-0.010	335.935	0.000
43.000	0.781	3.079	0.000	-11.237	1.000	0.000	9.900	-0.010	335.935	0.000
43.100	0.782	3.079	0.000	-11.317	1.000	0.000	9.900	-0.010	335.936	0.000
43.200	0.782	3.079	0.000	-11.030	1.000	0.000	9.900	-0.010	335.936	0.000
43.300	0.781	3.079	0.000	-11.246	1.000	0.000	9.900	-0.010	335.937	0.000
43.400	0.781	3.079	0.000	-11.427	1.000	0.000	9.900	-0.010	335.938	0.000
43.500	0.782	3.081	0.000	-11.365	1.000	0.000	9.900	-0.010	335.938	0.000
43.600	0.782	3.081	0.000	-11.020	1.000	0.000	9.900	-0.010	335.939	0.000
43.700	0.781	3.080	0.000	-11.190	1.000	0.000	9.900	-0.010	335.939	0.000
43.800	0.780	3.080	0.001	-11.463	1.000	0.000	9.900	-0.010	335.940	0.000
43.900	0.782	3.082	0.000	-11.174	1.000	0.000	9.900	-0.010	335.941	0.000
44.000	0.781	3.080	0.000	-11.372	1.000	0.000	9.900	-0.010	335.941	0.000
44.100	0.781	3.082	0.000	-11.417	1.000	0.000	9.900	-0.010	335.942	0.000
44.200	0.782	3.082	0.000	-11.283	1.000	0.000	9.900	-0.010	335.942	0.000
44.300	0.782	3.082	0.000	-11.251	1.000	0.000	9.900	-0.010	335.943	0.000
44.400	0.781	3.084	0.000	-11.470	1.000	0.000	9.900	-0.010	335.944	0.000
44.500	0.781	3.084	0.000	-11.169	1.000	0.000	9.900	-0.010	335.944	0.000
44.600	0.782	3.083	0.000	-11.339	1.000	0.000	9.900	-0.010	335.945	0.000
44.700	0.781	3.083	0.000	-11.162	1.000	0.000	9.900	-0.010	335.945	0.000
44.800	0.781	3.083	0.000	-11.291	1.000	0.000	9.900	-0.010	335.946	0.000
44.900	0.779	3.082	0.000	-11.306	1.000	0.000	9.900	-0.010	335.947	0.000
45.000	0.779	3.083	0.000	-11.443	1.000	0.000	9.900	-0.010	335.947	0.000
45.100	0.779	3.081	0.000	-11.474	1.000	0.000	9.900	-0.010	335.948	0.000
45.200	0.778	3.083	0.000	-11.219	1.000	0.000	9.900	-0.010	335.948	0.000
45.300	0.780	3.081	0.000	-11.267	1.000	0.000	9.900	-0.010	335.949	0.000
45.400	0.780	3.084	0.000	-11.603	1.000	0.000	9.900	-0.010	335.950	0.000
45.500	0.779	3.083	0.000	-11.242	1.000	0.000	9.900	-0.010	335.950	0.000
45.600	0.778	3.084	0.000	-11.420	1.000	0.000	9.900	-0.010	335.951	0.000
45.700	0.778	3.083	0.000	-11.298	1.000	0.000	9.900	-0.010	335.951	0.000
45.800	0.777	3.084	0.000	-11.386	1.000	0.000	9.900	-0.010	335.952	0.000
45.900	0.778	3.082	0.000	-11.549	1.000	0.000	9.900	-0.010	335.953	0.000
46.000	0.776	3.082	0.000	-11.291	1.000	0.000	9.900	-0.010	335.953	0.000
46.100	0.776	3.082	0.000	-11.277	1.000	0.000	9.900	-0.010	335.954	0.000
46.200	0.777	3.082	0.000	-11.147	1.000	0.000	9.900	-0.010	335.954	0.000
46.300	0.775	3.082	0.000	-11.160	1.000	0.000	9.900	-0.010	335.955	0.000
46.400	0.775	3.081	0.000	-11.291	1.000	0.000	9.900	-0.010	335.956	0.000
46.500	0.776	3.084	0.000	-11.305	1.000	0.000	9.900	-0.010	335.956	0.000
46.600	0.777	3.085	0.000	-11.414	1.000	0.000	9.900	-0.010	335.957	0.000
46.700	0.778	3.085	0.000	-11.219	1.000	0.000	9.900	-0.010	335.957	0.000
46.800	0.777	3.084	0.000	-11.253	1.000	0.000	9.900	-0.010	335.958	0.000
46.900	0.777	3.085	0.000	-11.552	1.000	0.000	9.900	-0.010	335.959	0.000
47.000	0.776	3.085	0.000	-11.291	1.000	0.000	9.900	-0.010	335.959	0.000
47.100	0.777	3.084	0.000	-11.285	1.000	0.000	9.900	-0.010	335.960	0.000
47.200	0.776	3.084	0.000	-11.225	1.000	0.000	9.900	-0.010	335.391	0.000
47.300	0.775	3.085	0.000	-11.291	1.000	0.000	9.900	-0.011	334.528	0.000
47.400	0.776	3.085	0.000	-11.284	1.000	0.000	9.900	-0.012	333.665	0.000
47.500	0.778	3.085	0.000	-11.225	1.000	0.000	9.900	-0.012	332.802	0.000
47.600	0.775	3.085	0.000	-11.297	1.000	0.000	9.900	-0.013	331.939	0.000
47.700	0.776	3.084	0.000	-11.363	1.000	0.000	9.900	-0.013	331.076	0.000
47.800	0.777	3.085	0.000	-11.363	1.000	0.000	9.900	-0.014	330.213	0.000
47.900	0.775	3.085	0.000	-11.351	1.000	0.000	9.900	-0.015	329.350	0.000
48.000	0.776	3.085	0.000	-11.230	1.000	0.000	9.900	-0.015	328.487	0.000
48.100	0.776	3.086	0.000	-11.369	1.000	0.000	9.900	-0.016	327.624	0.000
48.200	0.777	3.085	0.000	-11.425	1.000	0.000	9.900	-0.016	326.761	0.000
48.300	0.777	3.085	0.000	-11.286	1.000	0.000	9.900	-0.017	325.898	0.000
48.400	0.775	3.086	0.000	-11.219	1.000	0.000	9.900	-0.018	325.034	0.000
48.500	0.775	3.085	0.000	-11.219	1.000	0.000	9.900	-0.018	324.171	0.000
48.600	0.777	3.086	0.000	-11.421	1.000	0.000	9.900	-0.019	323.308	0.000
48.700	0.777	3.085	0.000	-11.163	1.000	0.000	9.900	-0.019	322.445	0.000
48.800	0.775	3.085	0.000	-11.363	1.000	0.000	9.900	-0.020	321.582	0.000
48.900	0.775	3.085	0.000	-11.367	1.000	0.000	9.900	-0.021	320.719	0.000
49.000	0.774	3.085	0.000	-11.445	1.000	0.000	9.900	-0.021	319.856	0.000
49.100	0.777	3.085	0.000	-11.552	1.000	0.000	9.900	-0.022	318.993	0.000
49.200	0.775	3.083	0.000	-11.159	1.000	0.000	9.900	-0.022	318.130	0.000
49.300	0.775	3.087	0.000	-11.359	1.000	0.000	9.900	-0.023	317.267	0.000
49.400	0.777	3.084	0.000	-11.286	1.000	0.000	9.900	-0.024	316.404	0.000
49.500	0.776	3.085	0.000	-11.224	1.000	0.000	9.900	-0.024	315.540	0.000
49.600	0.775	3.086	0.000	-11.285	1.000	0.000	9.900	-0.025	314.677	0.000
49.700	0.775	3.086	0.001	-11.223	1.000	0.000	9.900	-0.025	313.814	0.000
49.800	0.775	3.086	0.000	-11.304	1.000	0.000	9.900	-0.026	312.951	0.000
49.900	0.777	3.087	0.000	-11.564	1.000	0.000	9.900	-0.027	312.088	0.000
50.000	0.776	3.085	0.000	-11.283	1.000	0.000	9.900	-0.027	311.225	0.000
50.100	0.775	3.086	0.000	-11.164	1.000	0.000	9.900	-0.028	310.362	0.000
50.200	0.775	3.088	0.000	-11.443	1.000	0.000	9.900	-0.028	309.499	0.000
50.300	0.775	3.088	0.000	-11.586	1.000	0.000	9.900	-0.029	308.636	0.000
50.400	0.775	3.087	0.000	-11.703	1.000	0.000	9.900	-0.030	307.773	0.000
50.500	0.775	3.086	0.000	-11.283	1.000	0.000	9.900	-0.030	306.910	0.000
50.600	0.774	3.087	0.000	-11.159	1.000	0.000	9.900	-0.031	306.047	0.000
50.700	0.775	3.088	0.000	-11.423	1.000	0.000	9.900	-0.031	305.183	0.000
50.800	0.774	3.086	0.000	-11.150	1.000	0.000	9.900	-0.032	304.320	0.000
50.900	0.775	3.087	0.000	-11.214	1.000	0.000	9.900	-0.033	303.457	0.000
51.000	0.775	3.087	0.000	-11.078	1.000	0.000	9.900	-0.033	302.594	0.000
51.100	0.775	3.087	0.000	-11.161	1.000	0.000	9.900	-0.034	301.731	0.000
51.200	0.775	3.086	0.000	-11.425	1.000	0.000	9.900	-0.034	300.868	0.000
51.300	0.775	3.086	0.000	-11.222	1.000	0.000	9.900	-0.035	300.005	0.000
51.400	0.774	3.086	0.000	-11.296	1.000	0.000	9.900	-0.036	299.142	0.000
51.500	0.775	3.086	0.000	-11.435	1.000	0.000	9.900	-0.036	298.279	0.000
51.600	0.775	3.086	0.000	-11.430	1.000	0.000	9.900	-0.037	297.416	0.000
51.700	0.775	3.086	0.000	-11.298	1.000	0.000	9.900	-0.037	296.553	0.000
51.800	0.775	3.088	0.000	-11.501	1.000	0.000	9.900	-0.038	295.689	0.000
51.900	0.774	3.085	0.000	-11.369	1.000	0.000	9.900	-0.039	294.826	0.000
52.000	0.773	3.088	0.000	-11.504	1.000	0.000	9.900	-0.039	293.963	0.000
52.100	0.775	3.086	0.000	-11.438	1.000	0.000	9.900	-0.040	293.100	0.000
52.200	0.775	3.088	0.000	-11.499	1.000	0.000	9.900	-0.040	289.388	0.000
52.300	0.775	3.086	0.000	-11.296	1.000	0.000	9.900	-0.040	284.155	0.000
52.400	0.774	3.088	0.001	-11.435	1.000	0.000	9.900	-0.040	278.922	0.000
52.500	0.775	3.086	0.000	-11.437	1.000	0.000	9.900	-0.040	273.689	0.000
52.600	0.774	3.085	0.000	-11.502	1.000	0.000	9.900	-0.040	268.457	0.000
52.700	0.774	3.086	0.000	-11.363	1.000	0.000	9.900	-0.040	263.224	0.000
52.800	0.774	3.085	0.000	-11.361	1.000	0.000	9.900	-0.040	257.991	0.000
52.900	0.773	3.087	0.000	-11.287	1.000	0.000	9.900	-0.040	252.759	0.000
53.000	0.773	3.086	0.000	-11.153	1.000	0.000	9.900	-0.040	247.526	0.000
53.100	0.774	3.088	0.000	-11.361	1.000	0.000	9.900	-0.040	242.293	0.000
53.200	0.775	3.088	0.000	-11.291	1.000	0.000	9.900	-0.040	237.061	0.000
53.300	0.773	3.086	0.000	-11.291	1.000	0.000	9.900	-0.040	231.828	0.000
53.400	0.775	3.086	0.000	-11.292	1.000	0.000	9.900	-0.040	226.595	0.000
53.500	0.775	3.086	0.000	-11.418	1.000	0.000	9.900	-0.040	221.362	0.000
53.600	0.775	3.086	0.000	-11.359	1.000	0.000	9.900	-0.040	216.130	0.000
53.700	0.774	3.088	0.000	-11.076	1.000	0.000	9.900	-0.040	210.897	0.000
53.800	0.775	3.088	0.000	-11.147	1.000	0.000	9.900	-0.040	205.664	0.000
53.900	0.775	3.086	0.000	-11.147	1.000	0.000	9.900	-0.040	200.432	0.000
54.000	0.775	3.086	0.000	-11.153	1.000	0.000	9.900	-0.040	195.199	0.000
54.100	0.775	3.088	0.000	-11.505	1.000	0.000	9.900	-0.040	189.966	0.000
54.200	0.774	3.086	0.000	-11.360	1.000	0.000	9.900	-0.040	184.734	0.000
54.300	0.774	3.085	0.000	-11.148	1.000	0.000	9.900	-0.040	179.501	0.000
54.400	0.774	3.085	0.000	-11.218	1.000	0.000	9.900	-0.040	174.268	0.000
54.500	0.775	3.088	0.000	-11.147	1.000	0.000	9.900	-0.040	169.035	0.000
54.600	0.775	3.087	0.000	-11.291	1.000	0.000	9.900	-0.040	163.803	0.000
54.700	0.775	3.085	0.000	-11.435	1.000	0.000	9.900	-0.040	158.570	0.000
54.800	0.775	3.088	0.001	-11.220	1.000	0.000	9.900	-0.040	153.337	0.000
54.900	0.773	3.086	0.000	-11.363	1.000	0.000	9.900	-0.040	148.105	0.000
55.000	0.773	3.087	0.000	-11.434	1.000	0.000	9.900	-0.040	142.872	0.000
55.100	0.775	3.086	0.000	-11.291	1.000	0.000	9.900	-0.040	137.639	0.000
55.200	0.774	3.086	0.000	-11.362	1.000	0.000	9.900	-0.040	132.407	0.000
55.300	0.773	3.086	0.000	-11.219	1.000	0.000	9.900	-0.040	127.174	0.000
55.400	0.775	3.088	0.000	-11.433	1.000	0.000	9.900	-0.040	121.941	0.000
55.500	0.777	3.090	0.000	-11.221	1.000	0.000	9.900	-0.040	116.708	0.000
55.600	0.777	3.087	0.000	-11.292	1.000	0.000	9.900	-0.040	111.476	0.000
55.700	0.776	3.089	0.000	-11.432	1.000	0.000	9.900	-0.040	106.243	0.000
55.800	0.775	3.090	0.001	-11.291	1.000	0.000	9.900	-0.040	101.010	0.000
55.900	0.775	3.091	0.000	-11.290	1.000	0.000	9.900	-0.040	95.778	0.000
56.000	0.776	3.088	0.000	-11.219	1.000	0.000	9.900	-0.040	90.545	0.000
56.100	0.777	3.088	0.000	-11.434	1.000	0.000	9.900	-0.040	85.312	0.000
56.200	0.775	3.089	0.000	-11.147	1.000	0.000	9.900	-0.040	80.080	0.000
56.300	0.777	3.090	0.000	-11.218	1.000	0.000	9.900	-0.040	74.847	0.000
56.400	0.775	3.092	0.000	-11.219	1.000	0.000	9.900	-0.040	69.614	0.000
56.500	0.775	3.088	0.000	-11.435	1.000	0.000	9.900	-0.040	64.381	0.000
56.600	0.777	3.088	0.000	-11.363	1.000	0.000	9.900	-0.040	59.149	0.000
56.700	0.775	3.090	0.000	-11.221	1.000	0.000	9.900	-0.040	53.916	0.000
56.800	0.775	3.088	0.000	-11.219	1.000	0.000	9.900	-0.040	48.683	0.000
56.900	0.775	3.090	0.000	-11.219	1.000	0.000	9.900	-0.040	43.451	0.000
57.000	0.776	3.089	0.000	-11.502	1.000	0.000	9.900	-0.040	38.218	0.000
57.100	0.775	3.090	0.000	-11.436	1.000	0.000	9.900	-0.040	32.985	0.000
57.200	0.775	3.090	0.000	-11.293	1.000	0.000	9.900	-0.040	30.870	0.000
57.300	0.776	3.088	0.000	-11.361	1.000	0.000	9.900	-0.040	30.613	0.000
57.400	0.775	3.090	0.000	-11.292	1.000	0.000	9.900	-0.040	30.357	0.000
57.500	0.775	3.090	0.000	-11.362	1.000	0.000	9.900	-0.040	30.101	0.000
57.600	0.777	3.091	0.000	-11.292	1.000	0.000	9.900	-0.040	29.845	0.000
57.700	0.776	3.090	0.000	-11.575	1.000	0.000	9.900	-0.040	29.589	0.000
57.800	0.776	3.091	0.000	-11.157	1.000	0.000	9.900	-0.040	29.332	0.000
57.900	0.776	3.090	0.000	-11.218	1.000	0.000	9.900	-0.040	29.076	0.000
58.000	0.775	3.088	0.001	-11.499	1.000	0.000	9.900	-0.040	28.820	0.000
58.100	0.775	3.088	0.000	-11.436	1.000	0.000	9.900	-0.040	28.564	0.000
58.200	0.775	3.088	0.000	-11.223	1.000	0.000	9.900	-0.040	28.308	0.000
58.300	0.777	3.088	0.000	-11.428	1.000	0.000	9.900	-0.040	28.052	0.000
58.400	0.775	3.090	0.000	-11.294	1.000	0.000	9.900	-0.040	27.795	0.000
58.500	0.776	3.089	0.000	-11.350	1.000	0.000	9.900	-0.040	27.539	0.000
58.600	0.775	3.088	0.000	-11.433	1.000	0.000	9.900	-0.040	27.283	0.000
58.700	0.776	3.090	0.000	-11.228	1.000	0.000	9.900	-0.040	27.027	0.000
58.800	0.777	3.089	0.000	-11.219	1.000	0.000	9.900	-0.040	26.771	0.000
58.900	0.777	3.090	0.000	-11.357	1.000	0.000	9.900	-0.040	26.514	0.000
59.000	0.776	3.090	0.000	-11.363	1.000	0.000	9.900	-0.040	26.258	0.000
59.100	0.775	3.090	0.000	-11.224	1.000	0.000	9.900	-0.040	26.002	0.000
59.200	0.775	3.089	0.000	-11.428	1.000	0.000	9.900	-0.040	25.746	0.000
59.300	0.776	3.088	0.000	-11.226	1.000	0.000	9.900	-0.040	25.490	0.000
59.400	0.775	3.088	0.000	-11.357	1.000	0.000	9.900	-0.040	25.233	0.000
59.500	0.777	3.090	0.000	-11.224	1.000	0.000	9.900	-0.040	24.977	0.000
59.600	0.776	3.090	0.000	-11.288	1.000	0.000	9.900	-0.040	24.721	0.000
59.700	0.775	3.090	0.000	-11.360	1.000	0.000	9.900	-0.040	24.465	0.000
59.800	0.775	3.088	0.000	-11.224	1.000	0.000	9.900	-0.040	24.209	0.000
59.900	0.775	3.090	0.001	-11.287	1.000	0.000	9.900	-0.040	23.953	0.000
60.000	0.775	3.088	0.000	-11.359	1.000	0.000	9.900	-0.040	23.696	0.000
60.100	0.777	3.090	0.000	-11.363	1.000	0.000	9.900	-0.040	23.440	0.000
60.200	0.777	3.090	0.000	-11.431	1.000	0.000	9.900	-0.040	23.184	0.000
60.300	0.777	3.088	0.000	-11.504	1.000	0.000	9.900	-0.040	22.928	0.000
60.400	0.779	3.087	0.000	-11.302	1.000	0.000	9.900	-0.040	22.672	0.000
60.500	0.780	3.090	0.000	-11.360	1.000	0.000	9.900	-0.040	22.415	0.000
60.600	0.779	3.091	0.000	-11.225	1.000	0.000	9.900	-0.040	22.159	0.000
60.700	0.778	3.087	0.000	-11.219	1.000	0.000	9.900	-0.040	21.903	0.000
60.800	0.779	3.089	0.000	-11.356	1.000	0.000	9.900	-0.040	21.647	0.000
60.900	0.780	3.089	0.000	-11.294	1.000	0.000	9.900	-0.040	21.391	0.000
61.000	0.779	3.088	0.000	-11.428	1.000	0.000	9.900	-0.040	21.134	0.000
61.100	0.780	3.088	0.000	-11.503	1.000	0.000	9.900	-0.040	20.878	0.000
61.200	0.781	3.088	0.000	-11.575	1.000	0.000	9.900	-0.040	20.622	0.000
61.300	0.779	3.090	0.000	-11.374	1.000	0.000	9.900	-0.040	20.366	0.000
61.400	0.778	3.089	0.000	-11.228	1.000	0.000	9.900	-0.040	20.110	0.000
61.500	0.779	3.088	0.000	-11.287	1.000	0.000	9.900	-0.040	19.854	0.000
61.600	0.777	3.089	0.000	-11.291	1.000	0.000	9.900	-0.040	19.597	0.000
61.700	0.779	3.089	0.000	-11.358	1.000	0.000	9.900	-0.040	19.341	0.000
61.800	0.779	3.090	0.000	-11.296	1.000	0.000	9.900	-0.040	19.085	0.000
61.900	0.780	3.090	0.000	-11.492	1.000	0.000	9.900	-0.040	18.829	0.000
62.000	0.777	3.088	0.000	-11.239	1.000	0.000	9.900	-0.040	18.573	0.000
62.100	0.779	3.090	0.000	-11.286	1.000	0.000	9.900	-0.040	18.316	0.000
62.200	0.779	3.090	0.000	-11.156	1.000	0.000	9.900	-0.040	18.131	0.000
62.300	0.779	3.090	0.000	-11.147	1.000	0.000	9.900	-0.040	17.981	0.000
62.400	0.781	3.088	0.000	-11.281	1.000	0.000	9.900	-0.040	17.832	0.000
62.500	0.778	3.088	0.001	-11.358	1.000	0.000	9.900	-0.040	17.682	0.000
62.600	0.780	3.089	0.001	-11.363	1.000	0.000	9.900	-0.040	17.532	0.000
62.700	0.781	3.088	0.000	-11.229	1.000	0.000	9.900	-0.040	17.383	0.000
62.800	0.781	3.089	0.000	-11.085	1.000	0.000	9.900	-0.040	17.233	0.000
62.900	0.781	3.089	0.000	-11.340	1.000	0.000	9.900	-0.040	17.084	0.000
63.000	0.781	3.090	0.000	-11.363	1.000	0.000	9.900	-0.040	16.934	0.000
63.100	0.781	3.088	0.000	-11.296	1.000	0.000	9.900	-0.040	16.784	0.000
63.200	0.782	3.091	0.000	-11.157	1.000	0.000	9.900	-0.040	16.635	0.000
63.300	0.781	3.089	0.000	-11.213	1.000	0.000	9.900	-0.040	16.485	0.000
63.400	0.779	3.088	0.000	-11.418	1.000	0.000	9.900	-0.040	16.336	0.000
63.500	0.781	3.088	0.000	-11.304	1.000	0.000	9.900	-0.040	16.186	0.000
63.600	0.782	3.089	0.000	-11.422	1.000	0.000	9.900	-0.040	16.036	0.000
63.700	0.782	3.090	0.000	-11.236	1.000	0.000	9.900	-0.040	15.887	0.000
63.800	0.783	3.090	0.000	-11.284	1.000	0.000	9.900	-0.040	15.737	0.000
63.900	0.785	3.089	0.000	-11.423	1.000	0.000	9.900	-0.040	15.588	0.000
64.000	0.782	3.090	0.000	-11.435	1.000	0.000	9.900	-0.040	15.438	0.000
64.100	0.782	3.090	0.000	-11.238	1.000	0.000	9.900	-0.040	15.288	0.000
64.200	0.782	3.090	0.000	-11.153	1.000	0.000	9.900	-0.040	15.139	0.000
64.300	0.784	3.090	0.000	-11.607	1.000	0.000	9.900	-0.040	14.989	0.000
64.400	0.782	3.088	0.000	-11.257	1.000	0.000	9.900	-0.040	14.840	0.000
64.500	0.782	3.089	0.000	-11.022	1.000	0.000	9.900	-0.040	14.690	0.000
64.600	0.782	3.090	0.000	-11.196	1.000	0.000	9.900	-0.040	14.540	0.000
64.700	0.782	3.089	0.000	-11.284	1.000	0.000	9.900	-0.040	14.391	0.000
64.800	0.782	3.087	0.000	-11.160	1.000	0.000	9.900	-0.040	14.241	0.000
64.900	0.782	3.089	0.000	-11.212	1.000	0.000	9.900	-0.040	14.092	0.000
65.000	0.782	3.088	0.000	-11.542	1.000	0.000	9.900	-0.040	13.942	0.000
65.100	0.784	3.089	0.000	-11.450	1.000	0.000	9.900	-0.040	13.792	0.000
65.200	0.785	3.088	0.000	-11.370	1.000	0.000	9.900	-0.040	13.643	0.000
65.300	0.785	3.089	0.000	-11.623	1.000	0.000	9.900	-0.040	13.493	0.000
65.400	0.784	3.089	0.000	-11.331	1.000	0.000	9.900	-0.040	13.344	0.000
65.500	0.784	3.089	0.000	-11.420	1.000	0.000	9.900	-0.040	13.194	0.000
65.600	0.786	3.090	0.000	-11.499	1.000	0.000	9.900	-0.040	13.044	0.000
65.700	0.787	3.091	0.000	-11.251	1.000	0.000	9.900	-0.040	12.895	0.000
65.800	0.786	3.091	0.000	-11.348	1.000	0.000	9.900	-0.040	12.745	0.000
65.900	0.785	3.089	0.000	-11.040	1.000	0.000	9.900	-0.040	12.596	0.000
66.000	0.786	3.088	0.000	-11.513	1.000	0.000	9.900	-0.040	12.446	0.000
66.100	0.784	3.090	0.000	-11.386	1.000	0.000	9.900	-0.040	12.296	0.000
66.200	0.786	3.091	0.000	-11.427	1.000	0.000	9.900	-0.040	12.147	0.000
66.300	0.785	3.089	0.000	-11.435	1.000	0.000	9.900	-0.040	11.997	0.000
66.400	0.785	3.090	0.000	-11.435	1.000	0.000	9.900	-0.040	11.848	0.000
66.500	0.784	3.090	0.000	-11.243	1.000	0.000	9.900	-0.040	11.698	0.000
66.600	0.784	3.090	0.000	-11.283	1.000	0.000	9.900	-0.040	11.548	0.000
66.700	0.784	3.089	0.000	-11.291	1.000	0.000	9.900	-0.040	11.399	0.000
66.800	0.784	3.088	0.000	-11.228	1.000	0.000	9.900	-0.040	11.249	0.000
66.900	0.783	3.089	0.000	-11.282	1.000	0.000	9.900	-0.040	11.100	0.000
67.000	0.784	3.088	0.000	-11.418	1.000	0.000	9.900	-0.040	10.950	0.000
67.100	0.784	3.088	0.000	-11.308	1.000	0.000	9.900	-0.040	10.800	0.000
67.200	0.784	3.088	0.000	-11.354	1.000	0.000	9.900	-0.040	10.710	0.000
67.300	0.786	3.089	0.000	-11.363	1.000	0.000	9.900	-0.040	10.661	0.000
67.400	0.785	3.088	0.000	-11.490	1.000	0.000	9.900	-0.040	10.611	0.000
67.500	0.785	3.087	0.000	-11.444	1.000	0.000	9.900	-0.040	10.561	0.000
67.600	0.786	3.086	0.000	-11.372	1.000	0.000	9.900	-0.040	10.511	0.000
67.700	0.786	3.087	0.000	-11.237	1.000	0.000	9.900	-0.040	10.462	0.000
67.800	0.787	3.087	0.000	-11.468	1.000	0.000	9.900	-0.040	10.412	0.000
67.900	0.787	3.088	0.000	-11.444	1.000	0.000	9.900	-0.040	10.362	0.000
68.000	0.788	3.087	0.000	-11.560	1.000	0.000	9.900	-0.040	10.312	0.000
68.100	0.788	3.087	0.000	-11.268	1.000	0.000	9.900	-0.040	10.262	0.000
68.200	0.788	3.087	0.000	-11.219	1.000	0.000	9.900	-0.040	10.213	0.000
68.300	0.788	3.086	0.000	-11.281	1.000	0.000	9.900	-0.040	10.163	0.000
68.400	0.788	3.086	0.000	-11.475	1.000	0.000	9.900	-0.040	10.113	0.000
68.500	0.788	3.087	0.000	-11.208	1.000	0.000	9.900	-0.040	10.063	0.000
68.600	0.788	3.088	0.000	-11.454	1.000	0.000	9.900	-0.040	10.014	0.000
68.700	0.788	3.088	0.000	-11.137	1.000	0.000	9.900	-0.040	9.964	0.000
68.800	0.787	3.085	0.000	-11.382	1.000	0.000	9.900	-0.040	9.914	0.000
68.900	0.788	3.087	0.000	-11.311	1.000	0.000	9.900	-0.040	9.864	0.000
69.000	0.788	3.088	0.000	-11.353	1.000	0.000	9.900	-0.040	9.815	0.000
69.100	0.788	3.087	0.000	-11.239	1.000	0.000	9.900	-0.040	9.765	0.000
69.200	0.788	3.087	0.000	-11.281	1.000	0.000	9.900	-0.040	9.715	0.000
69.300	0.788	3.086	0.000	-11.352	1.000	0.000	9.900	-0.040	9.665	0.000
69.400	0.788	3.086	0.000	-11.424	1.000	0.000	9.900	-0.040	9.615	0.000
69.500	0.788	3.086	0.000	-11.315	1.000	0.000	9.900	-0.040	9.566	0.000
69.600	0.789	3.086	0.000	-11.291	1.000	0.000	9.900	-0.040	9.516	0.000
69.700	0.790	3.087	0.000	-11.352	1.000	0.000	9.900	-0.040	9.466	0.000
69.800	0.789	3.088	0.000	-11.302	1.000	0.000	9.900	-0.040	9.416	0.000
69.900	0.789	3.087	0.000	-11.228	1.000	0.000	9.900	-0.040	9.367	0.000
70.000	0.789	3.087	0.000	-11.030	1.000	0.000	9.900	-0.040	9.317	0.000
70.100	0.789	3.086	0.000	-11.259	1.000	0.000	9.900	-0.040	9.267	0.000
70.200	0.788	3.088	0.000	-11.291	1.000	0.000	9.900	-0.040	9.217	0.000
70.300	0.790	3.088	0.000	-11.291	1.000	0.000	9.900	-0.040	9.168	0.000
70.400	0.790	3.088	0.000	-11.564	1.000	0.000	9.900	-0.040	9.118	0.000
70.500	0.789	3.086	0.000	-11.235	1.000	0.000	9.900	-0.040	9.068	0.000
70.600	0.791	3.088	0.000	-11.219	1.000	0.000	9.900	-0.040	9.018	0.000
70.700	0.790	3.086	0.000	-11.147	1.000	0.000	9.900	-0.040	8.969	0.000
70.800	0.792	3.085	0.000	-11.362	1.000	0.000	9.900	-0.040	8.919	0.000
70.900	0.792	3.084	0.000	-11.289	1.000	0.000	9.900	-0.040	8.869	0.000
71.000	0.790	3.085	0.000	-11.224	1.000	0.000	9.900	-0.040	8.819	0.000
71.100	0.791	3.084	0.000	-11.354	1.000	0.000	9.900	-0.040	8.769	0.000
71.200	0.790	3.085	0.000	-11.241	1.000	0.000	9.900	-0.040	8.720	0.000
71.300	0.792	3.086	0.000	-11.501	1.000	0.000	9.900	-0.040	8.670	0.000
71.400	0.792	3.085	0.000	-11.413	1.000	0.000	9.900	-0.040	8.620	0.000
71.500	0.792	3.085	0.000	-11.235	1.000	0.000	9.900	-0.040	8.570	0.000
71.600	0.793	3.085	0.000	-11.353	1.000	0.000	9.900	-0.040	8.521	0.000
71.700	0.792	3.085	0.000	-11.302	1.000	0.000	9.900	-0.040	8.471	0.000
71.800	0.793	3.085	0.000	-11.399	1.000	0.000	9.900	-0.040	8.421	0.000
71.900	0.793	3.085	0.000	-11.529	1.000	0.000	9.900	-0.040	8.371	0.000
72.000	0.795	3.085	0.001	-11.337	1.000	0.000	9.900	-0.040	8.322	0.000
72.100	0.793	3.084	0.000	-11.523	1.000	0.000	9.900	-0.040	8.272	0.000
72.200	0.792	3.085	0.000	-11.206	1.000	0.000	9.900	-0.040	8.249	0.000
72.300	0.794	3.085	0.000	-11.195	1.000	0.000	9.900	-0.040	8.247	0.000
72.400	0.795	3.085	0.000	-11.412	1.000	0.000	9.900	-0.039	8.244	0.000
72.500	0.795	3.085	0.000	-11.314	1.000	0.000	9.900	-0.039	8.242	0.000
72.600	0.796	3.085	0.000	-11.401	1.000	0.000	9.900	-0.039	8.240	0.000
72.700	0.795	3.085	0.000	-11.253	1.000	0.000	9.900	-0.039	8.238	0.000
72.800	0.796	3.085	0.000	-11.411	1.000	0.000	9.900	-0.039	8.236	0.000
72.900	0.795	3.085	0.000	-11.279	1.000	0.000	9.900	-0.038	8.233	0.000
73.000	0.795	3.085	0.000	-11.242	1.000	0.000	9.900	-0.038	8.231	0.000
73.100	0.795	3.086	0.000	-11.363	1.000	0.000	9.900	-0.038	8.229	0.000
73.200	0.798	3.085	0.000	-11.352	1.000	0.000	9.900	-0.038	8.227	0.000
73.300	0.797	3.085	0.000	-11.281	1.000	0.000	9.900	-0.038	8.225	0.000
73.400	0.797	3.085	0.000	-11.259	1.000	0.000	9.900	-0.037	8.222	0.000
73.500	0.797	3.085	0.000	-11.465	1.000	0.000	9.900	-0.037	8.220	0.000
73.600	0.797	3.085	0.000	-11.229	1.000	0.000	9.900	-0.037	8.218	0.000
73.700	0.798	3.085	0.000	-11.312	1.000	0.000	9.900	-0.037	8.216	0.000
73.800	0.798	3.085	0.000	-11.391	1.000	0.000	9.900	-0.037	8.214	0.000
73.900	0.800	3.085	0.000	-11.147	1.000	0.000	9.900	-0.036	8.211	0.000
74.000	0.801	3.083	0.000	-11.177	1.000	0.000	9.900	-0.036	8.209	0.000
74.100	0.801	3.082	0.000	-11.331	1.000	0.000	9.900	-0.036	8.207	0.000
74.200	0.799	3.082	0.000	-11.147	1.000	0.000	9.900	-0.036	8.205	0.000
74.300	0.799	3.083	0.000	-11.176	1.000	0.000	9.900	-0.036	8.203	0.000
74.400	0.801	3.082	0.000	-11.354	1.000	0.000	9.900	-0.035	8.200	0.000
74.500	0.801	3.082	0.000	-11.291	1.000	0.000	9.900	-0.035	8.198	0.000
74.600	0.800	3.084	0.000	-11.281	1.000	0.000	9.900	-0.035	8.196	0.000
74.700	0.801	3.083	0.000	-11.239	1.000	0.000	9.900	-0.035	8.194	0.000
74.800	0.801	3.083	0.000	-11.342	1.000	0.000	9.900	-0.035	8.192	0.000
74.900	0.801	3.083	0.000	-11.219	1.000	0.000	9.900	-0.034	8.189	0.000
75.000	0.802	3.084	0.000	-11.219	1.000	0.000	9.900	-0.034	8.187	0.000
75.100	0.802	3.082	0.000	-11.239	1.000	0.000	9.900	-0.034	8.185	0.000
75.200	0.803	3.082	0.000	-11.323	1.000	0.000	9.900	-0.034	8.183	0.000
75.300	0.802	3.084	0.000	-11.084	1.000	0.000	9.900	-0.034	8.181	0.000
75.400	0.801	3.083	0.000	-11.156	1.000	0.000	9.900	-0.033	8.178	0.000
75.500	0.801	3.082	0.000	-11.228	1.000	0.000	9.900	-0.033	8.176	0.000
75.600	0.801	3.083	0.000	-11.300	1.000	0.000	9.900	-0.033	8.174	0.000
75.700	0.802	3.081	0.000	-11.345	1.000	0.000	9.900	-0.033	8.172	0.000
75.800	0.802	3.082	0.000	-11.247	1.000	0.000	9.900	-0.033	8.170	0.000
75.900	0.801	3.082	0.001	-11.400	1.000	0.000	9.900	-0.032	8.167	0.000
76.000	0.801	3.084	0.000	-11.173	1.000	0.000	9.900	-0.032	8.165	0.000
76.100	0.801	3.084	0.000	-11.326	1.000	0.000	9.900	-0.032	8.163	0.000
76.200	0.801	3.082	0.000	-11.093	1.000	0.000	9.900	-0.032	8.161	0.000
76.300	0.802	3.081	0.000	-11.199	1.000	0.000	9.900	-0.032	8.159	0.000
76.400	0.801	3.081	0.000	-11.094	1.000	0.000	9.900	-0.031	8.156	0.000
76.500	0.802	3.081	0.000	-11.219	1.000	0.000	9.900	-0.031	8.154	0.000
76.600	0.801	3.081	0.000	-11.219	1.000	0.000	9.900	-0.031	8.152	0.000
76.700	0.802	3.080	0.000	-11.219	1.000	0.000	9.900	-0.031	8.150	0.000
76.800	0.801	3.080	0.000	-11.209	1.000	0.000	9.900	-0.031	8.148	0.000
76.900	0.801	3.080	0.000	-11.174	1.000	0.000	9.900	-0.030	8.145	0.000
77.000	0.802	3.080	0.000	-11.395	1.000	0.000	9.900	-0.030	8.143	0.000
77.100	0.802	3.082	0.000	-11.601	1.000	0.000	9.900	-0.030	8.141	0.000
77.200	0.804	3.081	0.000	-11.235	1.000	0.000	9.900	-0.030	8.132	0.000
77.300	0.804	3.082	0.000	-11.346	1.000	0.000	9.900	-0.030	8.119	0.000
77.400	0.804	3.080	0.000	-11.201	1.000	0.000	9.900	-0.031	8.106	0.000
77.500	0.804	3.081	0.000	-11.109	1.000	0.000	9.900	-0.031	8.092	0.000
77.600	0.804	3.080	0.000	-11.349	1.000	0.000	9.900	-0.031	8.079	0.000
77.700	0.804	3.081	0.000	-11.244	1.000	0.000	9.900	-0.031	8.065	0.000
77.800	0.803	3.081	0.000	-11.420	1.000	0.000	9.900	-0.031	8.052	0.000
77.900	0.804	3.082	0.000	-11.291	1.000	0.000	9.900	-0.032	8.039	0.000
78.000	0.807	3.079	0.000	-11.283	1.000	0.000	9.900	-0.032	8.025	0.000
78.100	0.807	3.079	0.000	-11.244	1.000	0.000	9.900	-0.032	8.012	0.000
78.200	0.808	3.080	0.000	-11.396	1.000	0.000	9.900	-0.032	7.998	0.000
78.300	0.808	3.082	0.000	-11.083	1.000	0.000	9.900	-0.032	7.985	0.000
78.400	0.807	3.081	0.000	-11.155	1.000	0.000	9.900	-0.033	7.972	0.000
78.500	0.807	3.080	0.000	-11.233	1.000	0.000	9.900	-0.033	7.958	0.000
78.600	0.807	3.081	0.000	-11.363	1.000	0.000	9.900	-0.033	7.945	0.000
78.700	0.807	3.081	0.000	-11.356	1.000	0.000	9.900	-0.033	7.931	0.000
78.800	0.810	3.079	0.000	-11.284	1.000	0.000	9.900	-0.033	7.918	0.000
78.900	0.808	3.079	0.000	-11.226	1.000	0.000	9.900	-0.034	7.905	0.000
79.000	0.808	3.079	0.000	-11.304	1.000	0.000	9.900	-0.034	7.891	0.000
79.100	0.808	3.078	0.000	-11.414	1.000	0.000	9.900	-0.034	7.878	0.000
79.200	0.808	3.077	0.000	-11.232	1.000	0.000	9.900	-0.034	7.864	0.000
79.300	0.810	3.079	0.000	-11.348	1.000	0.000	9.900	-0.034	7.851	0.000
79.400	0.808	3.079	0.000	-11.248	1.000	0.000	9.900	-0.035	7.838	0.000
79.500	0.808	3.079	0.000	-11.471	1.000	0.000	9.900	-0.035	7.824	0.000
79.600	0.810	3.079	0.000	-11.175	1.000	0.000	9.900	-0.035	7.811	0.000
79.700	0.811	3.079	0.000	-11.428	1.000	0.000	9.900	-0.035	7.797	0.000
79.800	0.810	3.079	0.000	-11.357	1.000	0.000	9.900	-0.035	7.784	0.000
79.900	0.810	3.079	0.000	-11.285	1.000	0.000	9.900	-0.036	7.771	0.000
80.000	0.811	3.079	0.000	-11.206	1.000	0.000	9.900	-0.036	7.757	0.000
80.100	0.812	3.079	0.000	-11.088	1.000	0.000	9.900	-0.036	7.744	0.000
80.200	0.810	3.079	0.000	-11.239	1.000	0.000	9.900	-0.036	7.730	0.000
80.300	0.811	3.078	0.000	-11.423	1.000	0.000	9.900	-0.036	7.717	0.000
80.400	0.813	3.079	0.000	-11.279	1.000	0.000	9.900	-0.037	7.704	0.000
80.500	0.814	3.079	0.000	-11.158	1.000	0.000	9.900	-0.037	7.690	0.000
80.600	0.814	3.078	0.000	-11.291	1.000	0.000	9.900	-0.037	7.677	0.000
80.700	0.815	3.079	0.000	-11.291	1.000	0.000	9.900	-0.037	7.664	0.000
80.800	0.814	3.079	0.000	-11.285	1.000	0.000	9.900	-0.037	7.650	0.000
80.900	0.814	3.078	0.000	-11.219	1.000	0.000	9.900	-0.038	7.637	0.000
81.000	0.814	3.076	0.000	-11.219	1.000	0.000	9.900	-0.038	7.623	0.000
81.100	0.814	3.079	0.000	-11.240	1.000	0.000	9.900	-0.038	7.610	0.000
81.200	0.816	3.079	0.000	-11.478	1.000	0.000	9.900	-0.038	7.597	0.000
81.300	0.816	3.079	0.000	-11.152	1.000	0.000	9.900	-0.038	7.583	0.000
81.400	0.816	3.079	0.000	-11.219	1.000	0.000	9.900	-0.039	7.570	0.000
81.500	0.814	3.079	0.001	-11.224	1.000	0.000	9.900	-0.039	7.556	0.000
81.600	0.815	3.079	0.000	-11.305	1.000	0.000	9.900	-0.039	7.543	0.000
81.700	0.816	3.079	0.000	-11.497	1.000	0.000	9.900	-0.039	7.530	0.000
81.800	0.817	3.078	0.000	-11.353	1.000	0.000	9.900	-0.039	7.516	0.000
81.900	0.817	3.079	0.000	-11.223	1.000	0.000	9.900	-0.040	7.503	0.000
82.000	0.815	3.079	0.000	-11.295	1.000	0.000	9.900	-0.040	7.489	0.000
82.100	0.816	3.080	0.001	-11.349	1.000	0.000	9.900	-0.040	7.476	0.000
82.200	0.816	3.079	0.000	-11.155	1.000	0.000	9.900	-0.040	7.470	0.000
82.300	0.817	3.080	0.000	-11.278	1.000	0.000	9.900	-0.040	7.470	0.000
82.400	0.814	3.080	0.000	-11.089	1.000	0.000	9.900	-0.040	7.470	0.000
82.500	0.816	3.081	0.000	-11.347	1.000	0.000	9.900	-0.040	7.470	0.000
82.600	0.814	3.080	0.000	-11.071	1.000	0.000	9.900	-0.040	7.470	0.000
82.700	0.817	3.080	0.000	-11.018	1.000	0.000	9.900	-0.040	7.470	0.000
82.800	0.817	3.081	0.000	-11.291	1.000	0.000	9.900	-0.040	7.470	0.000
82.900	0.817	3.081	0.000	-11.291	1.000	0.000	9.900	-0.040	7.470	0.000
83.000	0.817	3.081	0.000	-11.291	1.000	0.000	9.900	-0.040	7.470	0.000
83.100	0.817	3.081	0.000	-11.291	1.000	0.000	9.900	-0.040	7.470	0.000
83.200	0.817	3.081	0.000	-11.291	1.000	0.000	9.900	-0.040	7.470	0.000
83.300	0.817	3.081	0.000	-11.291	1.000	0.000	9.900	-0.040	7.470	0.000
83.400	0.817	3.081	0.000	-11.291	1.000	0.000	9.900	-0.040	7.470	0.000
83.500	0.817	3.081	0.000	-11.291	1.000	0.000	9.900	-0.040	7.470	0.000
83.600	0.817	3.081	0.000	-11.291	1.000	0.000	9.900	-0.040	7.470	0.000
83.700	0.817	3.081	0.000	-11.291	1.000	0.000	9.900	-0.040	7.470	0.000
83.800	0.817	3.081	0.000	-11.291	1.000	0.000	9.900	-0.040	7.470	0.000
83.900	0.817	3.081	0.000	-11.291	1.000	0.000	9.900	-0.040	7.470	0.000
84.000	0.817	3.081	0.000	-11.291	1.000	0.000	9.900	-0.040	7.470	0.000
84.100	0.817	3.081	0.000	-11.291	1.000	0.000	9.900	-0.040	7.470	0.000
84.200	0.817	3.081	0.000	-11.291	1.000	0.000	9.900	-0.040	7.470	0.000
84.300	0.817	3.081	0.000	-11.291	1.000	0.000	9.900	-0.040	7.470	0.000
84.400	0.817	3.081	0.000	-11.291	1.000	0.000	9.900	-0.040	7.470	0.000
84.500	0.817	3.081	0.000	-11.291	1.000	0.000	9.900	-0.040	7.470	0.000
84.600	0.817	3.081	0.000	-11.291	1.000	0.000	9.900	-0.040	7.470	0.000
84.700	0.817	3.081	0.000	-11.291	1.000	0.000	9.900	-0.040	7.470	0.000
84.800	0.817	3.081	0.000	-11.291	1.000	0.000	9.900	-0.040	7.470	0.000
84.900	0.817	3.081	0.000	-11.291	1.000	0.000	9.900	-0.040	7.470	0.000
85.000	0.817	3.081	0.000	-11.291	1.000	0.000	9.900	-0.040	7.470	0.000
85.100	0.817	3.081	0.000	-11.291	1.000	0.000	9.900	-0.040	7.470	0.000
85.200	0.817	3.081	0.000	-11.291	1.000	0.000	9.900	-0.040	7.470	0.000
85.300	0.817	3.081	0.000	-11.291	1.000	0.000	9.900	-0.040	7.470	0.000
85.400	0.817	3.081	0.000	-11.291	1.000	0.000	9.900	-0.040	7.470	0.000
85.500	0.817	3.081	0.000	-11.291	1.000	0.000	9.900	-0.040	7.470	0.000
85.600	0.817	3.081	0.000	-11.291	1.000	0.000	9.900	-0.040	7.470	0.000
85.700	0.817	3.081	0.000	-11.291	1.000	0.000	9.900	-0.040	7.470	0.000
85.800	0.817	3.081	0.000	-11.291	1.000	0.000	9.900	-0.040	7.470	0.000
85.900	0.817	3.081	0.000	-11.291	1.000	0.000	9.900	-0.040	7.470	0.000
86.000	0.817	3.081	0.000	-11.291	1.000	0.000	9.900	-0.040	7.470	0.000
86.100	0.817	3.081	0.000	-11.291	1.000	0.000	9.900	-0.040	7.470	0.000
86.200	0.817	3.081	0.000	-11.291	1.000	0.000	9.900	-0.040	7.470	0.000
86.300	0.817	3.081	0.000	-11.291	1.000	0.000	9.900	-0.040	7.470	0.000
86.400	0.817	3.081	0.000	-11.291	1.000	0.000	9.900	-0.040	7.470	0.000
86.500	0.817	3.081	0.000	-11.291	1.000	0.000	9.900	-0.040	7.470	0.000
86.600	0.817	3.081	0.000	-11.291	1.000	0.000	9.900	-0.040	7.470	0.000
86.700	0.817	3.081	0.000	-11.291	1.000	0.000	9.900	-0.040	7.470	0.000
86.800	0.817	3.081	0.000	-11.291	1.000	0.000	9.900	-0.040	7.470	0.000
86.900	0.817	3.081	0.000	-11.291	1.000	0.000	9.900	-0.040	7.470	0.000
87.000	0.817	3.081	0.000	-11.291	1.000	0.000	9.900	-0.040	7.470	0.000
87.100	0.817	3.081	0.000	-11.291	1.000	0.000	9.900	-0.040	7.470	0.000
87.200	0.817	3.081	0.000	-11.291	1.000	0.000	9.900	-0.040	7.470	0.000
87.300	0.817	3.081	0.000	-11.291	1.000	0.000	9.900	-0.040	7.470	0.000
87.400	0.817	3.081	0.000	-11.291	1.000	0.000	9.900	-0.040	7.470	0.000
87.500	0.817	3.081	0.000	-11.291	1.000	0.000	9.900	-0.040	7.470	0.000
87.600	0.817	3.081	0.000	-11.291	1.000	0.000	9.900	-0.040	7.470	0.000
87.700	0.817	3.081	0.000	-11.291	1.000	0.000	9.900	-0.040	7.470	0.000
87.800	0.817	3.081	0.000	-11.291	1.000	0.000	9.900	-0.040	7.470	0.000
87.900	0.817	3.081	0.000	-11.291	1.000	0.000	9.900	-0.040	7.470	0.000
88.000	0.817	3.081	0.000	-11.291	1.000	0.000	9.900	-0.040	7.470	0.000
88.100	0.817	3.081	0.000	-11.291	1.000	0.000	9.900	-0.040	7.470	0.000
88.200	0.817	3.081	0.000	-11.291	1.000	0.000	9.900	-0.040	7.470	0.000
88.300	0.817	3.081	0.000	-11.291	1.000	0.000	9.900	-0.040	7.470	0.000
88.400	0.817	3.081	0.000	-11.291	1.000	0.000	9.900	-0.040	7.470	0.000
88.500	0.817	3.081	0.000	-11.291	1.000	0.000	9.900	-0.040	7.470	0.000
88.600	0.817	3.081	0.000	-11.291	1.000	0.000	9.900	-0.040	7.470	0.000
88.700	0.817	3.081	0.000	-11.291	1.000	0.000	9.900	-0.040	7.470	0.000
88.800	0.817	3.081	0.000	-11.291	1.000	0.000	9.900	-0.040	7.470	0.000
88.900	0.817	3.081	0.000	-11.291	1.000	0.000	9.900	-0.040	7.470	0.000
89.000	0.817	3.081	0.000	-11.291	1.000	0.000	9.900	-0.040	7.470	0.000
89.100	0.817	3.081	0.000	-11.291	1.000	0.000	9.900	-0.040	7.470	0.000
89.200	0.817	3.081	0.000	-11.291	1.000	0.000	9.900	-0.040	7.470	0.000
89.300	0.817	3.081	0.000	-11.291	1.000	0.000	9.900	-0.040	7.470	0.000
89.400	0.817	3.081	0.000	-11.291	1.000	0.000	9.900	-0.040	7.470	0.000
89.500	0.817	3.081	0.000	-11.291	1.000	0.000	9.900	-0.040	7.470	0.000
89.600	0.817	3.081	0.000	-11.291	1.000	0.000	9.900	-0.040	7.470	0.000
89.700	0.817	3.081	0.000	-11.291	1.000	0.000	9.900	-0.040	7.470	0.000
89.800	0.817	3.081	0.000	-11.291	1.000	0.000	9.900	-0.040	7.470	0.000
89.900	0.817	3.081	0.000	-11.291	1.000	0.000	9.900	-0.040	7.470	0.000
90.000	0.817	3.081	0.000	-11.291	1.000	0.000	9.900	-0.040	7.470	0.000
90.100	0.817	3.081	0.000	-11.291	1.000	0.000	9.900	-0.040	7.470	0.000
90.200	0.817	3.081	0.000	-11.291	1.000	0.000	9.900	-0.040	7.470	0.000
90.300	0.817	3.081	0.000	-11.291	1.000	0.000	9.900	-0.040	7.470	0.000
90.400	0.817	3.081	0.000	-11.291	1.000	0.000	9.900	-0.040	7.470	0.000
90.500	0.817	3.081	0.000	-11.291	1.000	0.000	9.900	-0.040	7.470	0.000
90.600	0.817	3.081	0.000	-11.291	1.000	0.000	9.900	-0.040	7.470	0.000
90.700	0.817	3.081	0.000	-11.291	1.000	0.000	9.900	-0.040	7.470	0.000
90.800	0.817	3.081	0.000	-11.291	1.000	0.000	9.900	-0.040	7.470	0.000
90.900	0.817	3.081	0.000	-11.291	1.000	0.000	9.900	-0.040	7.470	0.000
91.000	0.817	3.081	0.000	-11.291	1.000	0.000	9.900	-0.040	7.470	0.000
91.100	0.817	3.081	0.000	-11.291	1.000	0.000	9.900	-0.040	7.470	0.000
91.200	0.817	3.081	0.000	-11.291	1.000	0.000	9.900	-0.040	7.470	0.000
91.300	0.817	3.081	0.000	-11.291	1.000	0.000	9.900	-0.040	7.470	0.000
91.400	0.817	3.081	0.000	-11.291	1.000	0.000	9.900	-0.040	7.470	0.000
91.500	0.817	3.081	0.000	-11.291	1.000	0.000	9.900	-0.040	7.470	0.000
91.600	0.817	3.081	0.000	-11.291	1.000	0.000	9.900	-0.040	7.470	0.000
91.700	0.817	3.081	0.000	-11.291	1.000	0.000	9.900	-0.040	7.470	0.000
91.800	0.817	3.081	0.000	-11.291	1.000	0.000	9.900	-0.040	7.470	0.000
91.900	0.817	3.081	0.000	-11.291	1.000	0.000	9.900	-0.040	7.470	0.000
92.000	0.817	3.081	0.000	-11.291	1.000	0.000	9.900	-0.040	7.470	0.000
92.100	0.817	3.081	0.000	-11.291	1.000	0.000	9.900	-0.040	7.470	0.000
92.200	0.817	3.081	0.000	-11.291	1.000	0.000	9.900	-0.040	7.470	0.000
92.300	0.817	3.081	0.000	-11.291	1.000	0.000	9.900	-0.040	7.470	0.000
92.400	0.817	3.081	0.000	-11.291	1.000	0.000	9.900	-0.040	7.470	0.000
92.500	0.817	3.081	0.000	-11.291	1.000	0.000	9.900	-0.040	7.470	0.000
92.600	0.817	3.081	0.000	-11.291	1.000	0.000	9.900	-0.040	7.470	0.000
92.700	0.817	3.081	0.000	-11.291	1.000	0.000	9.900	-0.040	7.470	0.000
92.800	0.817	3.081	0.000	-11.291	1.000	0.000	9.900	-0.040	7.470	0.000
92.900	0.817	3.081	0.000	-11.291	1.000	0.000	9.900	-0.040	7.470	0.000
